title:eeg_02, start timestamp:1594579772.919653, stop timestamp:1594579826.851280, headset type:INSIGHT, headset serial:A1D2064AFA, headset firmware:930, subject name:Samu, channels:57, sampling rate:eeg_128;mot_64;pow_8, samples:6919      , version:2.0
Timestamp,EEG.Counter,EEG.Interpolated,EEG.AF3,EEG.T7,EEG.Pz,EEG.T8,EEG.AF4,EEG.RawCq,EEG.Battery,MarkerIndex,MarkerType,MarkerValueInt,EEG.MarkerHardware,CQ.AF3,CQ.T7,CQ.Pz,CQ.T8,CQ.AF4,CQ.Overall,MOT.CounterMems,MOT.InterpolatedMems,MOT.Q0,MOT.Q1,MOT.Q2,MOT.Q3,MOT.AccX,MOT.AccY,MOT.AccZ,MOT.MagX,MOT.MagY,MOT.MagZ,POW.AF3.Theta,POW.AF3.Alpha,POW.AF3.BetaL,POW.AF3.BetaH,POW.AF3.Gamma,POW.T7.Theta,POW.T7.Alpha,POW.T7.BetaL,POW.T7.BetaH,POW.T7.Gamma,POW.Pz.Theta,POW.Pz.Alpha,POW.Pz.BetaL,POW.Pz.BetaH,POW.Pz.Gamma,POW.T8.Theta,POW.T8.Alpha,POW.T8.BetaL,POW.T8.BetaH,POW.T8.Gamma,POW.AF4.Theta,POW.AF4.Alpha,POW.AF4.BetaL,POW.AF4.BetaH,POW.AF4.Gamma
1594579772.919653,20.000000,0.000000,4150.769043,4274.871582,4019.487061,3982.564209,4108.205078,0.000000,4.000000,,,,0.000000,4.000000,4.000000,4.000000,4.000000,4.000000,100.000000,10.000000,0.000000,0.527098,0.453125,0.484375,-0.531250,1.031266,0.062501,-0.156252,-76.563667,-31.574202,2.011354,,,,,,,,,,,,,,,,,,,,,,,,,
1594579772.927549,21.000000,0.000000,4149.743652,4281.025879,4022.051270,3983.076904,4101.025879,0.000000,4.000000,,,,0.000000,4.000000,4.000000,4.000000,4.000000,4.000000,100.000000,,,,,,,,,,,,,,,,,,,,,,,,,,,,,,,,,,,,,
1594579772.935446,22.000000,0.000000,4178.974121,4303.589844,4046.153809,4008.205078,4127.692383,0.000000,4.000000,,,,0.000000,4.000000,4.000000,4.000000,4.000000,4.000000,100.000000,11.000000,0.000000,0.527098,0.453125,0.484375,-0.531250,1.031266,0.062501,-0.156252,-76.563667,-32.244965,5.638402,,,,,,,,,,,,,,,,,,,,,,,,,
1594579772.943342,23.000000,0.000000,4215.384766,4330.256348,4081.538574,4043.076904,4169.743652,0.000000,4.000000,,,,0.000000,4.000000,4.000000,4.000000,4.000000,4.000000,100.000000,,,,,,,,,,,,,,,,,,,,,,,,,,,,,,,,,,,,,
1594579772.951237,24.000000,0.000000,4221.538574,4326.153809,4083.589844,4040.512939,4171.282227,0.000000,4.000000,,,,0.000000,4.000000,4.000000,4.000000,4.000000,4.000000,100.000000,12.000000,0.000000,0.527098,0.453125,0.484375,-0.531250,1.031266,0.062501,-0.156252,-76.563667,-32.848652,5.074562,,,,,,,,,,,,,,,,,,,,,,,,,
1594579772.959133,25.000000,0.000000,4178.974121,4287.179688,4035.897461,3978.974365,4128.717773,0.000000,4.000000,,,,0.000000,4.000000,4.000000,4.000000,4.000000,4.000000,100.000000,,,,,,,,,,,,,38.582047,8.432076,7.373752,5.578986,2.236640,34.585354,3.836319,1.715447,2.079029,1.032257,32.521542,7.093543,5.896746,4.276648,2.426712,31.406752,4.574932,5.356384,6.674727,3.620541,28.471445,8.560847,5.907623,5.647321,2.171227
1594579772.966829,26.000000,0.000000,4143.077148,4268.717773,4007.692383,3972.307617,4111.282227,0.000000,4.000000,,,,0.000000,4.000000,4.000000,4.000000,4.000000,4.000000,100.000000,13.000000,0.000000,0.527098,0.453125,0.484375,-0.531250,1.031266,0.062501,-0.156252,-76.563667,-33.391968,4.567105,,,,,,,,,,,,,,,,,,,,,,,,,
1594579772.974725,27.000000,0.000000,4145.128418,4274.871582,4021.025635,4020.512939,4122.051270,0.000000,4.000000,,,,0.000000,4.000000,4.000000,4.000000,4.000000,4.000000,100.000000,,,,,,,,,,,,,,,,,,,,,,,,,,,,,,,,,,,,,
1594579772.982621,28.000000,0.000000,4154.358887,4278.974121,4027.179443,4005.641113,4118.461426,0.000000,4.000000,,,,0.000000,4.000000,4.000000,4.000000,4.000000,4.000000,100.000000,14.000000,0.000000,0.527098,0.453125,0.484375,-0.531250,1.031266,0.062501,-0.125002,-76.563667,-33.880955,4.110395,,,,,,,,,,,,,,,,,,,,,,,,,
1594579772.990516,29.000000,0.000000,4154.358887,4281.025879,4018.461426,3987.692383,4105.128418,0.000000,4.000000,,,,0.000000,4.000000,4.000000,4.000000,4.000000,4.000000,100.000000,,,,,,,,,,,,,,,,,,,,,,,,,,,,,,,,,,,,,
1594579772.998212,30.000000,0.000000,4151.794922,4293.333496,4021.025635,4011.794922,4104.102539,0.000000,4.000000,,,,0.000000,4.000000,4.000000,4.000000,4.000000,4.000000,100.000000,15.000000,0.000000,0.527098,0.453125,0.484375,-0.531250,1.031266,0.062501,-0.125002,-76.563667,-34.321045,3.699355,,,,,,,,,,,,,,,,,,,,,,,,,
1594579773.006108,31.000000,0.000000,4151.794922,4293.333496,4030.769287,4013.333252,4109.230957,0.000000,4.000000,,,,0.000000,4.000000,4.000000,4.000000,4.000000,4.000000,100.000000,,,,,,,,,,,,,,,,,,,,,,,,,,,,,,,,,,,,,
1594579773.013804,32.000000,0.000000,4137.948730,4272.820313,4017.435791,3983.076904,4104.615234,0.000000,4.000000,,,,0.000000,4.000000,4.000000,4.000000,4.000000,4.000000,100.000000,16.000000,0.000000,0.527098,0.453125,0.484375,-0.531250,1.031266,0.031250,-0.156252,-76.563667,-34.717121,3.329420,,,,,,,,,,,,,,,,,,,,,,,,,
1594579773.021699,33.000000,0.000000,4113.846191,4258.461426,3986.666748,3957.948730,4088.205078,0.000000,4.000000,,,,0.000000,4.000000,4.000000,4.000000,4.000000,4.000000,100.000000,,,,,,,,,,,,,,,,,,,,,,,,,,,,,,,,,,,,,
1594579773.029396,34.000000,0.000000,4102.051270,4260.512695,3973.846191,3957.948730,4067.179443,0.000000,4.000000,,,,0.000000,4.000000,4.000000,4.000000,4.000000,4.000000,100.000000,17.000000,0.000000,0.527098,0.453125,0.484375,-0.531250,1.031266,0.031250,-0.156252,-76.563667,-35.073593,2.996478,,,,,,,,,,,,,,,,,,,,,,,,,
1594579773.037291,35.000000,0.000000,4107.692383,4270.769043,3987.692383,3977.435791,4061.025635,0.000000,4.000000,,,,0.000000,4.000000,4.000000,4.000000,4.000000,4.000000,100.000000,,,,,,,,,,,,,,,,,,,,,,,,,,,,,,,,,,,,,
1594579773.044987,36.000000,0.000000,4146.153809,4297.436035,4027.692383,4008.718018,4093.846191,0.000000,4.000000,,,,0.000000,4.000000,4.000000,4.000000,4.000000,4.000000,100.000000,18.000000,0.000000,0.527098,0.453125,0.484375,-0.531250,1.031266,0.031250,-0.156252,-76.563667,-35.394417,2.696830,,,,,,,,,,,,,,,,,,,,,,,,,
1594579773.052883,37.000000,0.000000,4208.205078,4324.102539,4081.538574,4037.948730,4148.205078,0.000000,4.000000,,,,0.000000,4.000000,4.000000,4.000000,4.000000,4.000000,100.000000,,,,,,,,,,,,,,,,,,,,,,,,,,,,,,,,,,,,,
1594579773.060579,38.000000,0.000000,4248.717773,4324.102539,4115.384766,4067.692383,4185.641113,0.000000,4.000000,,,,0.000000,4.000000,4.000000,4.000000,4.000000,4.000000,100.000000,19.000000,0.000000,0.527098,0.453125,0.484375,-0.531250,1.031266,0.062501,-0.156252,-76.563667,-35.683159,2.427147,,,,,,,,,,,,,,,,,,,,,,,,,
1594579773.068275,39.000000,0.000000,4237.948730,4301.538574,4102.563965,4076.923096,4180.512695,0.000000,4.000000,,,,0.000000,4.000000,4.000000,4.000000,4.000000,4.000000,100.000000,,,,,,,,,,,,,,,,,,,,,,,,,,,,,,,,,,,,,
1594579773.075971,40.000000,0.000000,4198.974121,4276.922852,4063.589844,4041.538574,4142.563965,0.000000,4.000000,,,,0.000000,4.000000,4.000000,4.000000,4.000000,4.000000,100.000000,20.000000,0.000000,0.527098,0.453125,0.484375,-0.531250,1.031266,0.062501,-0.156252,-76.563667,-35.943027,2.184432,,,,,,,,,,,,,,,,,,,,,,,,,
1594579773.083867,41.000000,0.000000,4203.589844,4289.230957,4065.128174,4010.256348,4145.128418,0.000000,4.000000,,,,0.000000,4.000000,4.000000,4.000000,4.000000,4.000000,100.000000,,,,,,,,,,,,,37.033485,6.987191,7.978131,5.415470,2.199520,31.383625,3.311478,1.816666,2.098536,1.002717,30.864315,5.703356,6.966183,4.069419,2.348664,29.954254,4.236773,6.940309,6.674674,3.556067,27.476862,7.813555,6.571159,5.325076,2.100466
1594579773.091563,42.000000,0.000000,4244.615234,4313.846191,4094.871826,4038.974365,4182.563965,0.000000,4.000000,,,,0.000000,4.000000,4.000000,4.000000,4.000000,4.000000,100.000000,21.000000,0.000000,0.527098,0.453125,0.484375,-0.531250,1.031266,0.062501,-0.156252,-76.563667,-36.176907,1.965989,,,,,,,,,,,,,,,,,,,,,,,,,
1594579773.099459,43.000000,0.000000,4257.948730,4311.794922,4094.871826,4078.461426,4185.128418,0.000000,4.000000,,,,0.000000,4.000000,4.000000,4.000000,4.000000,4.000000,100.000000,,,,,,,,,,,,,,,,,,,,,,,,,,,,,,,,,,,,,
1594579773.107154,44.000000,0.000000,4253.333496,4305.641113,4093.333252,4071.281982,4175.384766,0.000000,4.000000,,,,0.000000,4.000000,4.000000,4.000000,4.000000,4.000000,100.000000,22.000000,0.000000,0.527098,0.453125,0.484375,-0.531250,1.031266,0.062501,-0.156252,-76.563667,-36.387402,1.769390,,,,,,,,,,,,,,,,,,,,,,,,,
1594579773.114850,45.000000,0.000000,4261.538574,4305.641113,4105.641113,4065.641113,4182.051270,0.000000,4.000000,,,,0.000000,4.000000,4.000000,4.000000,4.000000,4.000000,100.000000,,,,,,,,,,,,,,,,,,,,,,,,,,,,,,,,,,,,,
1594579773.122546,46.000000,0.000000,4269.230957,4303.589844,4101.025879,4073.846191,4184.615234,0.000000,4.000000,,,,0.000000,4.000000,4.000000,4.000000,4.000000,4.000000,100.000000,23.000000,0.000000,0.510868,0.453125,0.484375,-0.546875,1.031266,0.031250,-0.156252,-76.563667,-36.576843,1.592451,,,,,,,,,,,,,,,,,,,,,,,,,
1594579773.130443,47.000000,0.000000,4261.538574,4309.743652,4087.179443,4069.230713,4181.538574,0.000000,4.000000,,,,0.000000,4.000000,4.000000,4.000000,4.000000,4.000000,100.000000,,,,,,,,,,,,,,,,,,,,,,,,,,,,,,,,,,,,,
1594579773.138339,48.000000,0.000000,4244.102539,4305.641113,4081.025635,4069.230713,4175.897461,0.000000,4.000000,,,,0.000000,4.000000,4.000000,4.000000,4.000000,4.000000,100.000000,24.000000,0.000000,0.510868,0.453125,0.484375,-0.546875,1.031266,0.062501,-0.156252,-76.563667,-36.747341,1.433206,,,,,,,,,,,,,,,,,,,,,,,,,
1594579773.146235,49.000000,0.000000,4217.436035,4281.025879,4065.128174,4029.230713,4153.846191,0.000000,4.000000,,,,0.000000,4.000000,4.000000,4.000000,4.000000,4.000000,100.000000,,,,,,,,,,,,,,,,,,,,,,,,,,,,,,,,,,,,,
1594579773.154130,50.000000,0.000000,4202.563965,4272.820313,4051.794922,3980.512939,4137.948730,0.000000,4.000000,,,,0.000000,4.000000,4.000000,4.000000,4.000000,4.000000,100.000000,25.000000,0.000000,0.510868,0.453125,0.484375,-0.546875,1.031266,0.062501,-0.156252,-76.563667,-36.900791,1.289885,,,,,,,,,,,,,,,,,,,,,,,,,
1594579773.161926,51.000000,0.000000,4215.384766,4283.077148,4066.153809,4022.051270,4153.333496,0.000000,4.000000,,,,0.000000,4.000000,4.000000,4.000000,4.000000,4.000000,100.000000,,,,,,,,,,,,,,,,,,,,,,,,,,,,,,,,,,,,,
1594579773.169622,52.000000,0.000000,4237.436035,4291.282227,4087.692383,4087.179443,4174.871582,0.000000,4.000000,,,,0.000000,4.000000,4.000000,4.000000,4.000000,4.000000,100.000000,26.000000,0.000000,0.510868,0.453125,0.484375,-0.546875,1.031266,0.062501,-0.156252,-76.563667,-37.038895,1.160897,,,,,,,,,,,,,,,,,,,,,,,,,
1594579773.177518,53.000000,0.000000,4227.692383,4291.282227,4080.512939,4072.820557,4163.077148,0.000000,4.000000,,,,0.000000,4.000000,4.000000,4.000000,4.000000,4.000000,100.000000,,,,,,,,,,,,,,,,,,,,,,,,,,,,,,,,,,,,,
1594579773.185414,54.000000,0.000000,4200.512695,4285.128418,4058.974365,4029.743652,4140.000000,0.000000,4.000000,,,,0.000000,4.000000,4.000000,4.000000,4.000000,4.000000,100.000000,27.000000,0.000000,0.510868,0.453125,0.484375,-0.546875,1.000015,0.062501,-0.156252,-76.563667,-37.163189,1.044807,,,,,,,,,,,,,,,,,,,,,,,,,
1594579773.193310,55.000000,0.000000,4221.538574,4287.179688,4062.564209,4017.435791,4147.179688,0.000000,4.000000,,,,0.000000,4.000000,4.000000,4.000000,4.000000,4.000000,100.000000,,,,,,,,,,,,,,,,,,,,,,,,,,,,,,,,,,,,,
1594579773.201205,56.000000,0.000000,4252.820313,4295.384766,4067.692383,4001.538574,4152.307617,0.000000,4.000000,,,,0.000000,4.000000,4.000000,4.000000,4.000000,4.000000,100.000000,28.000000,0.000000,0.510868,0.453125,0.484375,-0.546875,1.031266,0.062501,-0.156252,-76.563667,-37.275055,0.940327,,,,,,,,,,,,,,,,,,,,,,,,,
1594579773.208901,57.000000,0.000000,4254.358887,4305.641113,4064.102539,4012.307617,4142.051270,0.000000,4.000000,,,,0.000000,4.000000,4.000000,4.000000,4.000000,4.000000,100.000000,,,,,,,,,,,,,32.682735,7.180685,8.746811,5.292399,2.093215,25.084208,3.269855,2.127674,2.132548,0.940738,27.382330,5.503373,8.474829,4.037495,2.166218,26.565155,4.834921,9.270702,7.247357,3.749752,25.040215,8.161789,7.500585,5.061779,1.950674
1594579773.216597,58.000000,0.000000,4263.077148,4311.794922,4078.461426,4066.666748,4152.820313,0.000000,4.000000,,,,0.000000,4.000000,4.000000,4.000000,4.000000,4.000000,100.000000,29.000000,0.000000,0.510868,0.453125,0.484375,-0.546875,1.000015,0.062501,-0.156252,-76.563667,-37.375732,0.846294,,,,,,,,,,,,,,,,,,,,,,,,,
1594579773.224293,59.000000,0.000000,4268.717773,4283.077148,4078.461426,4064.615479,4163.589844,0.000000,4.000000,,,,0.000000,4.000000,4.000000,4.000000,4.000000,4.000000,100.000000,,,,,,,,,,,,,,,,,,,,,,,,,,,,,,,,,,,,,
1594579773.231988,60.000000,0.000000,4246.153809,4258.461426,4052.820557,4020.512939,4143.077148,0.000000,4.000000,,,,0.000000,4.000000,4.000000,4.000000,4.000000,4.000000,100.000000,30.000000,0.000000,0.510868,0.453125,0.484375,-0.546875,1.000015,0.062501,-0.156252,-76.563667,-37.466343,0.761664,,,,,,,,,,,,,,,,,,,,,,,,,
1594579773.239684,61.000000,0.000000,4241.538574,4281.025879,4058.974365,4011.281982,4132.820313,0.000000,4.000000,,,,0.000000,4.000000,4.000000,4.000000,4.000000,4.000000,100.000000,,,,,,,,,,,,,,,,,,,,,,,,,,,,,,,,,,,,,
1594579773.247380,62.000000,0.000000,4254.871582,4301.538574,4078.461426,4016.923096,4148.205078,0.000000,4.000000,,,,0.000000,4.000000,4.000000,4.000000,4.000000,4.000000,100.000000,31.000000,0.000000,0.510868,0.453125,0.484375,-0.546875,1.031266,0.062501,-0.156252,-76.563667,-37.547894,0.685498,,,,,,,,,,,,,,,,,,,,,,,,,
1594579773.255276,63.000000,0.000000,4235.384766,4281.025879,4059.487061,4002.051270,4144.615234,0.000000,4.000000,,,,0.000000,4.000000,4.000000,4.000000,4.000000,4.000000,100.000000,,,,,,,,,,,,,,,,,,,,,,,,,,,,,,,,,,,,,
1594579773.262972,64.000000,0.000000,4232.307617,4285.128418,4064.102539,4036.923096,4148.205078,450.000000,4.000000,,,,0.000000,4.000000,4.000000,4.000000,4.000000,4.000000,100.000000,32.000000,0.000000,0.510868,0.453125,0.484375,-0.546875,1.031266,0.031250,-0.156252,-76.563667,-37.621284,0.616948,,,,,,,,,,,,,,,,,,,,,,,,,
1594579773.270868,65.000000,0.000000,4249.743652,4301.538574,4089.230713,4086.666748,4166.153809,450.000000,4.000000,,,,0.000000,4.000000,4.000000,4.000000,4.000000,4.000000,100.000000,,,,,,,,,,,,,,,,,,,,,,,,,,,,,,,,,,,,,
1594579773.278564,66.000000,0.000000,4228.717773,4278.974121,4065.128174,4040.512939,4140.512695,1023.000000,4.000000,,,,0.000000,4.000000,4.000000,4.000000,4.000000,4.000000,100.000000,33.000000,0.000000,0.527098,0.453125,0.484375,-0.531250,1.031266,0.062501,-0.156252,-76.563667,-37.687340,0.555253,,,,,,,,,,,,,,,,,,,,,,,,,
1594579773.286460,67.000000,0.000000,4203.589844,4270.769043,4043.076904,3990.769287,4111.282227,450.000000,4.000000,,,,0.000000,4.000000,4.000000,4.000000,4.000000,4.000000,100.000000,,,,,,,,,,,,,,,,,,,,,,,,,,,,,,,,,,,,,
1594579773.294355,68.000000,0.000000,4206.666504,4287.179688,4064.615479,4007.692383,4126.153809,1023.000000,4.000000,,,,0.000000,4.000000,4.000000,4.000000,4.000000,4.000000,100.000000,34.000000,0.000000,0.527098,0.453125,0.484375,-0.531250,1.031266,0.062501,-0.156252,-76.563667,-37.746792,0.499728,,,,,,,,,,,,,,,,,,,,,,,,,
1594579773.302251,69.000000,0.000000,4222.051270,4289.230957,4084.615479,4028.718018,4144.102539,450.000000,4.000000,,,,0.000000,4.000000,4.000000,4.000000,4.000000,4.000000,100.000000,,,,,,,,,,,,,,,,,,,,,,,,,,,,,,,,,,,,,
1594579773.309947,70.000000,0.000000,4228.717773,4285.128418,4080.000000,4027.179443,4134.358887,1023.000000,4.000000,,,,0.000000,4.000000,4.000000,4.000000,4.000000,4.000000,100.000000,35.000000,0.000000,0.527098,0.453125,0.484375,-0.531250,1.031266,0.062501,-0.156252,-76.563667,-37.800293,4.277939,,,,,,,,,,,,,,,,,,,,,,,,,
1594579773.317843,71.000000,0.000000,4215.384766,4283.077148,4073.333252,4046.153809,4125.641113,450.000000,4.000000,,,,0.000000,4.000000,4.000000,4.000000,4.000000,4.000000,100.000000,,,,,,,,,,,,,,,,,,,,,,,,,,,,,,,,,,,,,
1594579773.325539,72.000000,0.000000,4203.589844,4289.230957,4073.846191,4075.384521,4128.717773,450.000000,4.000000,,,,0.000000,4.000000,4.000000,4.000000,4.000000,4.000000,100.000000,36.000000,0.000000,0.527098,0.453125,0.484375,-0.531250,1.000015,0.031250,-0.156252,-76.563667,-37.848450,7.678328,,,,,,,,,,,,,,,,,,,,,,,,,
1594579773.333434,73.000000,0.000000,4196.922852,4283.077148,4058.974365,4036.923096,4113.846191,1023.000000,4.000000,,,,0.000000,4.000000,4.000000,4.000000,4.000000,4.000000,100.000000,,,,,,,,,,,,,27.451288,9.354964,9.421140,5.325754,1.937788,17.787510,3.831161,2.508846,2.236369,0.858846,23.479570,7.052915,10.042289,4.267767,1.925576,22.467108,6.476321,11.793909,8.164893,4.107878,22.227755,10.114966,8.465097,4.976890,1.759818
1594579773.341130,74.000000,0.000000,4199.487305,4278.974121,4054.871826,3989.230713,4116.922852,450.000000,4.000000,,,,0.000000,4.000000,4.000000,4.000000,4.000000,4.000000,100.000000,37.000000,0.000000,0.510868,0.453125,0.484375,-0.546875,1.000015,0.031250,-0.125002,-76.563667,-37.891788,10.738679,,,,,,,,,,,,,,,,,,,,,,,,,
1594579773.349026,75.000000,0.000000,4213.333496,4283.077148,4071.794922,4015.897461,4148.717773,1023.000000,4.000000,,,,0.000000,4.000000,4.000000,4.000000,4.000000,4.000000,100.000000,,,,,,,,,,,,,,,,,,,,,,,,,,,,,,,,,,,,,
1594579773.356722,76.000000,0.000000,4201.025879,4272.820313,4062.051270,4053.846191,4140.512695,450.000000,4.000000,,,,0.000000,4.000000,4.000000,4.000000,4.000000,4.000000,100.000000,38.000000,0.000000,0.510868,0.453125,0.484375,-0.546875,1.000015,0.031250,-0.156252,-76.563667,-37.930790,9.664811,,,,,,,,,,,,,,,,,,,,,,,,,
1594579773.364617,77.000000,0.000000,4186.666504,4266.666504,4050.769287,4056.923096,4119.487305,450.000000,4.000000,,,,0.000000,4.000000,4.000000,4.000000,4.000000,4.000000,100.000000,,,,,,,,,,,,,,,,,,,,,,,,,,,,,,,,,,,,,
1594579773.372313,78.000000,0.000000,4208.717773,4289.230957,4071.794922,4037.948730,4140.512695,450.000000,4.000000,,,,0.000000,4.000000,4.000000,4.000000,4.000000,4.000000,100.000000,39.000000,0.000000,0.510868,0.453125,0.484375,-0.546875,1.031266,0.031250,-0.156252,-76.563667,-37.965897,8.698330,,,,,,,,,,,,,,,,,,,,,,,,,
1594579773.380209,79.000000,0.000000,4223.077148,4301.538574,4083.076904,4022.051270,4158.974121,1023.000000,4.000000,,,,0.000000,4.000000,4.000000,4.000000,4.000000,4.000000,100.000000,,,,,,,,,,,,,,,,,,,,,,,,,,,,,,,,,,,,,
1594579773.388105,80.000000,0.000000,4213.333496,4295.384766,4086.153809,4046.666748,4160.512695,450.000000,4.000000,,,,0.000000,4.000000,4.000000,4.000000,4.000000,4.000000,100.000000,40.000000,0.000000,0.510868,0.453125,0.484375,-0.546875,1.031266,0.062501,-0.156252,-76.563667,-37.997490,7.828497,,,,,,,,,,,,,,,,,,,,,,,,,
1594579773.395800,81.000000,0.000000,4206.666504,4299.487305,4100.000000,4063.076904,4171.794922,450.000000,4.000000,,,,0.000000,4.000000,4.000000,4.000000,4.000000,4.000000,100.000000,,,,,,,,,,,,,,,,,,,,,,,,,,,,,,,,,,,,,
1594579773.403496,82.000000,0.000000,4209.743652,4315.897461,4103.077148,4048.718018,4175.384766,450.000000,4.000000,,,,0.000000,4.000000,4.000000,4.000000,4.000000,4.000000,100.000000,41.000000,0.000000,0.510868,0.453125,0.484375,-0.546875,1.031266,0.031250,-0.156252,-76.563667,-38.025925,10.873831,,,,,,,,,,,,,,,,,,,,,,,,,
1594579773.411192,83.000000,0.000000,4206.666504,4307.692383,4087.692383,4065.128174,4157.436035,1023.000000,4.000000,,,,0.000000,4.000000,4.000000,4.000000,4.000000,4.000000,100.000000,,,,,,,,,,,,,,,,,,,,,,,,,,,,,,,,,,,,,
1594579773.418888,84.000000,0.000000,4191.282227,4285.128418,4082.564209,4087.692383,4146.666504,450.000000,4.000000,,,,0.000000,4.000000,4.000000,4.000000,4.000000,4.000000,100.000000,42.000000,0.000000,0.510868,0.453125,0.484375,-0.546875,1.000015,0.031250,-0.125002,-76.563667,-38.051514,13.614631,,,,,,,,,,,,,,,,,,,,,,,,,
1594579773.426584,85.000000,0.000000,4190.256348,4299.487305,4104.615234,4065.641113,4166.153809,450.000000,4.000000,,,,0.000000,4.000000,4.000000,4.000000,4.000000,4.000000,100.000000,,,,,,,,,,,,,,,,,,,,,,,,,,,,,,,,,,,,,
1594579773.434280,86.000000,0.000000,4201.538574,4320.000000,4122.563965,4050.256348,4186.666504,450.000000,4.000000,,,,0.000000,4.000000,4.000000,4.000000,4.000000,4.000000,100.000000,43.000000,0.000000,0.510868,0.453125,0.484375,-0.546875,1.031266,0.031250,-0.156252,-76.563667,-38.074547,12.253168,,,,,,,,,,,,,,,,,,,,,,,,,
1594579773.442175,87.000000,0.000000,4191.282227,4299.487305,4108.205078,4063.589844,4177.948730,1023.000000,4.000000,,,,0.000000,4.000000,4.000000,4.000000,4.000000,4.000000,100.000000,,,,,,,,,,,,,,,,,,,,,,,,,,,,,,,,,,,,,
1594579773.449872,88.000000,0.000000,4168.205078,4278.974121,4093.846191,4062.051270,4162.563965,450.000000,4.000000,,,,0.000000,4.000000,4.000000,4.000000,4.000000,4.000000,100.000000,44.000000,0.000000,0.510868,0.453125,0.484375,-0.546875,1.031266,0.062501,-0.156252,-76.563667,-38.095276,11.027851,,,,,,,,,,,,,,,,,,,,,,,,,
1594579773.457767,89.000000,0.000000,4156.922852,4278.974121,4095.384521,4046.153809,4157.948730,450.000000,4.000000,,,,0.000000,4.000000,4.000000,4.000000,4.000000,4.000000,100.000000,,,,,,,,,,,,,23.739380,13.045685,9.846019,5.584235,1.782700,11.302078,4.855709,2.831831,2.447030,0.782212,20.528818,10.182648,11.276159,4.789792,1.697088,18.816204,8.840653,13.961871,9.259188,4.560177,20.106842,13.402276,9.223359,5.104672,1.595059
1594579773.465463,90.000000,0.000000,4148.205078,4270.769043,4089.743652,4037.948730,4150.769043,450.000000,4.000000,,,,0.000000,4.000000,4.000000,4.000000,4.000000,4.000000,100.000000,45.000000,0.000000,0.510868,0.453125,0.484375,-0.546875,1.031266,0.062501,-0.156252,-76.563667,-38.113930,9.925066,,,,,,,,,,,,,,,,,,,,,,,,,
1594579773.473359,91.000000,0.000000,4145.641113,4266.666504,4083.076904,4045.128174,4145.128418,1023.000000,4.000000,,,,0.000000,4.000000,4.000000,4.000000,4.000000,4.000000,100.000000,,,,,,,,,,,,,,,,,,,,,,,,,,,,,,,,,,,,,
1594579773.481055,92.000000,0.000000,4163.077148,4278.974121,4096.922852,4035.897461,4160.000000,450.000000,4.000000,,,,0.000000,4.000000,4.000000,4.000000,4.000000,4.000000,100.000000,46.000000,0.000000,0.510868,0.453125,0.484375,-0.546875,1.031266,0.062501,-0.156252,-76.563667,-38.130722,8.932559,,,,,,,,,,,,,,,,,,,,,,,,,
1594579773.488951,93.000000,0.000000,4183.077148,4291.282227,4115.897461,4009.230713,4181.538574,450.000000,4.000000,,,,0.000000,4.000000,4.000000,4.000000,4.000000,4.000000,100.000000,,,,,,,,,,,,,,,,,,,,,,,,,,,,,,,,,,,,,
1594579773.496646,94.000000,0.000000,4195.897461,4301.538574,4126.666504,4052.820557,4189.743652,450.000000,4.000000,,,,0.000000,4.000000,4.000000,4.000000,4.000000,4.000000,100.000000,47.000000,0.000000,0.510868,0.453125,0.484375,-0.546875,1.031266,0.062501,-0.156252,-76.563667,-38.145832,8.039304,,,,,,,,,,,,,,,,,,,,,,,,,
1594579773.504542,95.000000,0.000000,4207.179688,4307.692383,4139.487305,4131.282227,4199.487305,1023.000000,4.000000,,,,0.000000,4.000000,4.000000,4.000000,4.000000,4.000000,100.000000,,,,,,,,,,,,,,,,,,,,,,,,,,,,,,,,,,,,,
1594579773.512238,96.000000,0.000000,4201.538574,4303.589844,4135.384766,4109.230957,4201.538574,450.000000,4.000000,,,,0.000000,4.000000,4.000000,4.000000,4.000000,4.000000,100.000000,48.000000,0.000000,0.510868,0.453125,0.484375,-0.546875,1.031266,0.062501,-0.156252,-76.563667,-38.159431,7.235373,,,,,,,,,,,,,,,,,,,,,,,,,
1594579773.520134,97.000000,0.000000,4186.153809,4297.436035,4120.000000,4047.692383,4190.256348,450.000000,4.000000,,,,0.000000,4.000000,4.000000,4.000000,4.000000,4.000000,100.000000,,,,,,,,,,,,,,,,,,,,,,,,,,,,,,,,,,,,,
1594579773.527829,98.000000,0.000000,4200.512695,4311.794922,4134.871582,4076.923096,4202.051270,450.000000,4.000000,,,,0.000000,4.000000,4.000000,4.000000,4.000000,4.000000,100.000000,49.000000,0.000000,0.510868,0.453125,0.484375,-0.546875,1.031266,0.062501,-0.156252,-76.563667,-38.171673,6.511836,,,,,,,,,,,,,,,,,,,,,,,,,
1594579773.535725,99.000000,0.000000,4222.563965,4324.102539,4158.461426,4128.205078,4231.282227,1023.000000,4.000000,,,,0.000000,4.000000,4.000000,4.000000,4.000000,4.000000,100.000000,,,,,,,,,,,,,,,,,,,,,,,,,,,,,,,,,,,,,
1594579773.543421,100.000000,0.000000,4231.282227,4328.205078,4172.307617,4132.307617,4244.615234,450.000000,4.000000,,,,0.000000,4.000000,4.000000,4.000000,4.000000,4.000000,100.000000,50.000000,0.000000,0.510868,0.453125,0.484375,-0.546875,1.031266,0.031250,-0.156252,-76.563667,-38.182690,5.860652,,,,,,,,,,,,,,,,,,,,,,,,,
1594579773.551316,101.000000,0.000000,4238.974121,4328.205078,4184.615234,4111.282227,4245.128418,450.000000,4.000000,,,,0.000000,4.000000,4.000000,4.000000,4.000000,4.000000,100.000000,,,,,,,,,,,,,,,,,,,,,,,,,,,,,,,,,,,,,
1594579773.559012,102.000000,0.000000,4234.358887,4320.000000,4180.512695,4100.512695,4244.102539,450.000000,4.000000,,,,0.000000,4.000000,4.000000,4.000000,4.000000,4.000000,100.000000,51.000000,0.000000,0.510868,0.453125,0.484375,-0.546875,1.031266,0.062501,-0.156252,-76.563667,-38.192604,5.274587,,,,,,,,,,,,,,,,,,,,,,,,,
1594579773.566908,103.000000,0.000000,4225.128418,4317.948730,4173.846191,4140.000000,4248.205078,1023.000000,4.000000,,,,0.000000,4.000000,4.000000,4.000000,4.000000,4.000000,100.000000,,,,,,,,,,,,,,,,,,,,,,,,,,,,,,,,,,,,,
1594579773.574804,104.000000,0.000000,4220.000000,4326.153809,4172.820313,4162.563965,4240.000000,450.000000,4.000000,,,,0.000000,4.000000,4.000000,4.000000,4.000000,4.000000,100.000000,52.000000,0.000000,0.510868,0.453125,0.484375,-0.546875,1.031266,0.062501,-0.156252,-76.563667,-38.201527,8.575312,,,,,,,,,,,,,,,,,,,,,,,,,
1594579773.582700,105.000000,0.000000,4211.794922,4322.051270,4160.000000,4123.077148,4217.948730,450.000000,4.000000,,,,0.000000,4.000000,4.000000,4.000000,4.000000,4.000000,100.000000,,,,,,,,,,,,,22.367628,16.981077,9.885618,5.990801,1.674551,6.800421,5.981293,3.004173,2.737013,0.737545,18.849461,13.929690,11.788799,5.468074,1.531903,16.199537,11.205717,15.155740,10.361029,5.003989,18.919333,16.921064,9.482977,5.331258,1.506514
1594579773.590596,106.000000,0.000000,4204.615234,4311.794922,4145.128418,4105.128418,4207.692383,450.000000,4.000000,,,,0.000000,4.000000,4.000000,4.000000,4.000000,4.000000,100.000000,53.000000,0.000000,0.510868,0.453125,0.484375,-0.546875,1.031266,0.062501,-0.156252,-76.563667,-38.209557,11.545964,,,,,,,,,,,,,,,,,,,,,,,,,
1594579773.598491,107.000000,0.000000,4195.897461,4305.641113,4138.461426,4121.025879,4201.025879,1023.000000,4.000000,,,,0.000000,4.000000,4.000000,4.000000,4.000000,4.000000,100.000000,,,,,,,,,,,,,,,,,,,,,,,,,,,,,,,,,,,,,
1594579773.606187,108.000000,0.000000,4180.512695,4301.538574,4125.128418,4087.692383,4182.051270,450.000000,4.000000,,,,0.000000,4.000000,4.000000,4.000000,4.000000,4.000000,100.000000,54.000000,0.000000,0.510868,0.453125,0.484375,-0.546875,1.031266,0.062501,-0.156252,-76.563667,-38.216785,14.219551,,,,,,,,,,,,,,,,,,,,,,,,,
1594579773.613883,109.000000,0.000000,4162.051270,4289.230957,4101.025879,4033.333252,4160.512695,450.000000,4.000000,,,,0.000000,4.000000,4.000000,4.000000,4.000000,4.000000,100.000000,,,,,,,,,,,,,,,,,,,,,,,,,,,,,,,,,,,,,
1594579773.621579,110.000000,0.000000,4163.589844,4293.333496,4100.512695,4047.692383,4160.000000,450.000000,4.000000,,,,0.000000,4.000000,4.000000,4.000000,4.000000,4.000000,100.000000,55.000000,0.000000,0.510868,0.453125,0.484375,-0.546875,1.031266,0.062501,-0.125002,-76.563667,-34.395107,12.797596,,,,,,,,,,,,,,,,,,,,,,,,,
1594579773.629275,111.000000,0.000000,4181.025879,4309.743652,4125.641113,4094.871826,4173.846191,1023.000000,4.000000,,,,0.000000,4.000000,4.000000,4.000000,4.000000,4.000000,100.000000,,,,,,,,,,,,,,,,,,,,,,,,,,,,,,,,,,,,,
1594579773.636971,112.000000,0.000000,4178.974121,4301.538574,4129.230957,4091.281982,4168.717773,450.000000,4.000000,,,,0.000000,4.000000,4.000000,4.000000,4.000000,4.000000,100.000000,56.000000,0.000000,0.510868,0.453125,0.484375,-0.546875,1.031266,0.062501,-0.156252,-76.563667,-34.783779,11.517837,,,,,,,,,,,,,,,,,,,,,,,,,
1594579773.644666,113.000000,0.000000,4158.461426,4283.077148,4110.256348,4065.641113,4150.769043,450.000000,4.000000,,,,0.000000,4.000000,4.000000,4.000000,4.000000,4.000000,100.000000,,,,,,,,,,,,,,,,,,,,,,,,,,,,,,,,,,,,,
1594579773.652362,114.000000,0.000000,4134.358887,4272.820313,4087.692383,4051.794922,4133.333496,450.000000,4.000000,,,,0.000000,4.000000,4.000000,4.000000,4.000000,4.000000,100.000000,57.000000,0.000000,0.510868,0.453125,0.484375,-0.546875,1.031266,0.062501,-0.156252,-76.563667,-35.133583,10.366053,,,,,,,,,,,,,,,,,,,,,,,,,
1594579773.660258,115.000000,0.000000,4135.384766,4276.922852,4088.718018,4036.923096,4135.384766,1023.000000,4.000000,,,,0.000000,4.000000,4.000000,4.000000,4.000000,4.000000,100.000000,,,,,,,,,,,,,,,,,,,,,,,,,,,,,,,,,,,,,
1594579773.667954,116.000000,0.000000,4171.794922,4299.487305,4121.538574,4043.589844,4169.743652,450.000000,4.000000,,,,0.000000,4.000000,4.000000,4.000000,4.000000,4.000000,100.000000,58.000000,0.000000,0.510868,0.453125,0.484375,-0.546875,1.031266,0.062501,-0.156252,-76.563667,-35.448410,9.329448,,,,,,,,,,,,,,,,,,,,,,,,,
1594579773.675850,117.000000,0.000000,4182.563965,4307.692383,4130.256348,4061.025635,4185.641113,450.000000,4.000000,,,,0.000000,4.000000,4.000000,4.000000,4.000000,4.000000,100.000000,,,,,,,,,,,,,,,,,,,,,,,,,,,,,,,,,,,,,
1594579773.683546,118.000000,0.000000,4145.128418,4289.230957,4104.102539,4047.179443,4158.974121,450.000000,4.000000,,,,0.000000,4.000000,4.000000,4.000000,4.000000,4.000000,100.000000,59.000000,0.000000,0.510868,0.453125,0.484375,-0.546875,1.000015,0.031250,-0.125002,-76.563667,-35.731750,8.396502,,,,,,,,,,,,,,,,,,,,,,,,,
1594579773.691441,119.000000,0.000000,4119.487305,4276.922852,4089.743652,4024.615479,4134.871582,1023.000000,4.000000,,,,0.000000,4.000000,4.000000,4.000000,4.000000,4.000000,100.000000,,,,,,,,,,,,,,,,,,,,,,,,,,,,,,,,,,,,,
1594579773.699137,120.000000,0.000000,4127.692383,4283.077148,4098.974121,4026.666748,4138.461426,450.000000,4.000000,,,,0.000000,4.000000,4.000000,4.000000,4.000000,4.000000,100.000000,60.000000,0.000000,0.510868,0.453125,0.484375,-0.546875,1.031266,0.062501,-0.125002,-76.563667,-35.986759,7.556852,,,,,,,,,,,,,,,,,,,,,,,,,
1594579773.707033,121.000000,0.000000,4146.666504,4289.230957,4110.769043,4048.718018,4155.897461,450.000000,4.000000,,,,0.000000,4.000000,4.000000,4.000000,4.000000,4.000000,100.000000,,,,,,,,,,,,,23.036341,19.694962,9.476684,6.365497,1.631553,4.342867,6.827841,3.006608,3.026150,0.739985,18.039013,17.035419,11.392965,6.077048,1.442250,14.507108,12.813273,14.988561,11.330181,5.335903,18.369005,19.311447,9.065570,5.486560,1.501141
1594579773.714729,122.000000,0.000000,4158.461426,4283.077148,4112.820313,4065.128174,4168.717773,450.000000,4.000000,,,,0.000000,4.000000,4.000000,4.000000,4.000000,4.000000,100.000000,61.000000,0.000000,0.510868,0.453125,0.484375,-0.546875,1.031266,0.062501,-0.156252,-76.563667,-32.388084,6.801167,,,,,,,,,,,,,,,,,,,,,,,,,
1594579773.722424,123.000000,0.000000,4167.179688,4293.333496,4120.000000,4082.051270,4176.410156,1023.000000,4.000000,,,,0.000000,4.000000,4.000000,4.000000,4.000000,4.000000,100.000000,,,,,,,,,,,,,,,,,,,,,,,,,,,,,,,,,,,,,
1594579773.730120,124.000000,0.000000,4176.410156,4315.897461,4126.666504,4091.281982,4177.948730,450.000000,4.000000,,,,0.000000,4.000000,4.000000,4.000000,4.000000,4.000000,100.000000,62.000000,0.000000,0.510868,0.453125,0.484375,-0.546875,1.000015,0.031250,-0.125002,-76.563667,-32.977459,6.121050,,,,,,,,,,,,,,,,,,,,,,,,,
1594579773.738016,125.000000,0.000000,4167.692383,4311.794922,4112.820313,4054.871826,4163.077148,450.000000,4.000000,,,,0.000000,4.000000,4.000000,4.000000,4.000000,4.000000,100.000000,,,,,,,,,,,,,,,,,,,,,,,,,,,,,,,,,,,,,
1594579773.745712,126.000000,0.000000,4150.769043,4289.230957,4095.384521,4025.128174,4153.333496,450.000000,4.000000,,,,0.000000,4.000000,4.000000,4.000000,4.000000,4.000000,100.000000,63.000000,0.000000,0.510868,0.453125,0.484375,-0.546875,1.031266,0.062501,-0.156252,-76.563667,-29.679714,5.508945,,,,,,,,,,,,,,,,,,,,,,,,,
1594579773.753607,127.000000,0.000000,4148.717773,4281.025879,4092.307617,4046.153809,4160.512695,241.000000,4.000000,,,,0.000000,4.000000,4.000000,4.000000,4.000000,4.000000,100.000000,,,,,,,,,,,,,,,,,,,,,,,,,,,,,,,,,,,,,
1594579773.761303,0.000000,0.000000,4157.948730,4287.179688,4089.743652,4060.512939,4163.077148,450.000000,4.000000,,,,0.000000,4.000000,4.000000,4.000000,4.000000,4.000000,100.000000,0.000000,0.000000,0.510868,0.453125,0.484375,-0.546875,1.031266,0.062501,-0.125002,-76.563667,-30.539925,4.958051,,,,,,,,,,,,,,,,,,,,,,,,,
1594579773.769198,1.000000,0.000000,4144.102539,4289.230957,4077.435791,4043.589844,4149.230957,450.000000,4.000000,,,,0.000000,4.000000,4.000000,4.000000,4.000000,4.000000,100.000000,,,,,,,,,,,,,,,,,,,,,,,,,,,,,,,,,,,,,
1594579773.776895,2.000000,0.000000,4107.179688,4268.717773,4054.358887,4026.153809,4124.615234,1023.000000,4.000000,,,,0.000000,4.000000,4.000000,4.000000,4.000000,4.000000,100.000000,1.000000,0.000000,0.510868,0.453125,0.484375,-0.546875,1.000015,0.062501,-0.156252,-76.563667,-31.314116,8.290429,,,,,,,,,,,,,,,,,,,,,,,,,
1594579773.784790,3.000000,0.000000,4101.538574,4256.410156,4043.589844,4021.538574,4112.820313,450.000000,4.000000,,,,0.000000,4.000000,4.000000,4.000000,4.000000,4.000000,100.000000,,,,,,,,,,,,,,,,,,,,,,,,,,,,,,,,,,,,,
1594579773.792686,4.000000,0.000000,4116.410156,4270.769043,4050.256348,4020.512939,4115.384766,1023.000000,4.000000,,,,0.000000,4.000000,4.000000,4.000000,4.000000,4.000000,100.000000,2.000000,0.000000,0.510868,0.453125,0.484375,-0.546875,1.031266,0.062501,-0.156252,-76.563667,-32.010887,7.461386,,,,,,,,,,,,,,,,,,,,,,,,,
1594579773.800582,5.000000,0.000000,4115.897461,4274.871582,4057.948730,4027.179443,4125.641113,450.000000,4.000000,,,,0.000000,4.000000,4.000000,4.000000,4.000000,4.000000,100.000000,,,,,,,,,,,,,,,,,,,,,,,,,,,,,,,,,,,,,
1594579773.808378,6.000000,0.000000,4119.487305,4266.666504,4068.718018,4036.923096,4144.615234,1023.000000,4.000000,,,,0.000000,4.000000,4.000000,4.000000,4.000000,4.000000,100.000000,3.000000,0.000000,0.510868,0.453125,0.484375,-0.546875,1.000015,0.031250,-0.156252,-76.563667,-32.637981,10.543431,,,,,,,,,,,,,,,,,,,,,,,,,
1594579773.816074,7.000000,0.000000,4131.794922,4268.717773,4075.897461,4030.769287,4146.666504,450.000000,4.000000,,,,0.000000,4.000000,4.000000,4.000000,4.000000,4.000000,100.000000,,,,,,,,,,,,,,,,,,,,,,,,,,,,,,,,,,,,,
1594579773.823770,8.000000,0.000000,4130.769043,4270.769043,4069.743652,4019.487061,4128.717773,450.000000,4.000000,,,,0.000000,4.000000,4.000000,4.000000,4.000000,4.000000,100.000000,4.000000,0.000000,0.527098,0.453125,0.484375,-0.531250,1.031266,0.031250,-0.156252,-76.563667,-33.202370,9.489088,,,,,,,,,,,,,,,,,,,,,,,,,
1594579773.831666,9.000000,0.000000,4127.692383,4274.871582,4071.794922,4025.128174,4134.871582,1023.000000,4.000000,,,,0.000000,4.000000,4.000000,4.000000,4.000000,4.000000,100.000000,,,,,,,,,,,,,25.065241,20.286222,8.639892,6.531382,1.631932,3.414732,7.137126,2.875356,3.216522,0.783868,17.651127,18.515675,10.202656,6.417848,1.402319,13.739039,13.213640,13.537347,12.037812,5.498080,18.295425,19.720110,8.010741,5.467774,1.540558
1594579773.839362,10.000000,0.000000,4147.179688,4297.436035,4095.897461,4056.410156,4168.717773,450.000000,4.000000,,,,0.000000,4.000000,4.000000,4.000000,4.000000,4.000000,100.000000,5.000000,0.000000,0.527098,0.453125,0.484375,-0.531250,1.031266,0.031250,-0.156252,-76.563667,-33.710316,8.540179,,,,,,,,,,,,,,,,,,,,,,,,,
1594579773.847257,11.000000,0.000000,4163.077148,4309.743652,4113.333496,4068.205078,4176.410156,1023.000000,4.000000,,,,0.000000,4.000000,4.000000,4.000000,4.000000,4.000000,100.000000,,,,,,,,,,,,,,,,,,,,,,,,,,,,,,,,,,,,,
1594579773.854954,12.000000,0.000000,4159.487305,4305.641113,4112.307617,4041.025635,4165.641113,450.000000,4.000000,,,,0.000000,4.000000,4.000000,4.000000,4.000000,4.000000,100.000000,6.000000,0.000000,0.527098,0.453125,0.484375,-0.531250,1.000015,0.031250,-0.156252,-76.563667,-34.167465,7.686161,,,,,,,,,,,,,,,,,,,,,,,,,
1594579773.862849,13.000000,0.000000,4167.179688,4313.846191,4116.410156,4061.025635,4184.102539,450.000000,4.000000,,,,0.000000,4.000000,4.000000,4.000000,4.000000,4.000000,100.000000,,,,,,,,,,,,,,,,,,,,,,,,,,,,,,,,,,,,,
1594579773.870545,14.000000,0.000000,4183.589844,4328.205078,4121.025879,4114.871582,4204.102539,450.000000,4.000000,,,,0.000000,4.000000,4.000000,4.000000,4.000000,4.000000,100.000000,7.000000,0.000000,0.527098,0.453125,0.484375,-0.531250,1.000015,0.031250,-0.156252,-76.563667,-34.578903,10.745728,,,,,,,,,,,,,,,,,,,,,,,,,
1594579773.878241,15.000000,0.000000,4183.589844,4340.512695,4120.000000,4103.077148,4200.512695,1023.000000,4.000000,,,,0.000000,4.000000,4.000000,4.000000,4.000000,4.000000,100.000000,,,,,,,,,,,,,,,,,,,,,,,,,,,,,,,,,,,,,
1594579773.885937,16.000000,0.000000,4172.307617,4350.769043,4111.282227,4069.743652,4190.256348,0.000000,4.000000,,,,0.000000,4.000000,4.000000,4.000000,4.000000,4.000000,100.000000,8.000000,0.000000,0.527098,0.453125,0.484375,-0.531250,1.000015,0.031250,-0.156252,-76.563667,-34.949196,9.671156,,,,,,,,,,,,,,,,,,,,,,,,,
1594579773.893832,17.000000,0.000000,4168.717773,4354.871582,4112.307617,4073.846191,4193.333496,0.000000,4.000000,,,,0.000000,4.000000,4.000000,4.000000,4.000000,4.000000,100.000000,,,,,,,,,,,,,,,,,,,,,,,,,,,,,,,,,,,,,
1594579773.901529,18.000000,0.000000,4195.897461,4367.179688,4152.307617,4094.871826,4230.769043,0.000000,4.000000,,,,0.000000,4.000000,4.000000,4.000000,4.000000,4.000000,100.000000,9.000000,0.000000,0.527098,0.453125,0.484375,-0.531250,1.031266,0.062501,-0.156252,-76.563667,-35.282459,8.704041,,,,,,,,,,,,,,,,,,,,,,,,,
1594579773.909424,19.000000,0.000000,4227.179688,4377.436035,4178.461426,4109.743652,4260.000000,0.000000,4.000000,,,,0.000000,4.000000,4.000000,4.000000,4.000000,4.000000,100.000000,,,,,,,,,,,,,,,,,,,,,,,,,,,,,,,,,,,,,
1594579773.917320,20.000000,0.000000,4211.282227,4358.974121,4149.743652,4113.333496,4232.820313,0.000000,4.000000,,,,0.000000,4.000000,4.000000,4.000000,4.000000,4.000000,100.000000,10.000000,0.000000,0.527098,0.453125,0.484375,-0.531250,1.031266,0.062501,-0.156252,-76.563667,-35.582397,7.833636,,,,,,,,,,,,,,,,,,,,,,,,,
1594579773.925216,21.000000,0.000000,4201.025879,4354.871582,4148.717773,4129.230957,4223.589844,0.000000,4.000000,,,,0.000000,4.000000,4.000000,4.000000,4.000000,4.000000,100.000000,,,,,,,,,,,,,,,,,,,,,,,,,,,,,,,,,,,,,
1594579773.932911,22.000000,0.000000,4222.051270,4356.922852,4174.871582,4138.461426,4253.846191,0.000000,4.000000,,,,0.000000,4.000000,4.000000,4.000000,4.000000,4.000000,100.000000,11.000000,0.000000,0.527098,0.453125,0.484375,-0.531250,1.031266,0.062501,-0.156252,-76.563667,-35.852341,7.050272,,,,,,,,,,,,,,,,,,,,,,,,,
1594579773.940807,23.000000,0.000000,4225.128418,4328.205078,4156.922852,4116.410156,4256.410156,0.000000,4.000000,,,,0.000000,4.000000,4.000000,4.000000,4.000000,4.000000,100.000000,,,,,,,,,,,,,,,,,,,,,,,,,,,,,,,,,,,,,
1594579773.948503,24.000000,0.000000,4220.512695,4317.948730,4139.487305,4107.692383,4249.743652,0.000000,4.000000,,,,0.000000,4.000000,4.000000,4.000000,4.000000,4.000000,100.000000,12.000000,0.000000,0.527098,0.453125,0.484375,-0.531250,1.031266,0.062501,-0.125002,-76.563667,-36.095291,6.345245,,,,,,,,,,,,,,,,,,,,,,,,,
1594579773.956398,25.000000,0.000000,4223.077148,4338.461426,4156.922852,4134.358887,4259.487305,0.000000,4.000000,,,,0.000000,4.000000,4.000000,4.000000,4.000000,4.000000,100.000000,,,,,,,,,,,,,27.094431,18.518845,7.494584,6.407951,1.628820,3.331835,6.766365,2.651247,3.237803,0.846190,17.229334,17.849182,8.548330,6.380230,1.369877,13.742948,12.257114,11.305648,12.358035,5.493714,18.417109,17.883364,6.549996,5.280359,1.563749
1594579773.964094,26.000000,0.000000,4226.153809,4350.769043,4171.282227,4148.205078,4266.666504,0.000000,4.000000,,,,0.000000,4.000000,4.000000,4.000000,4.000000,4.000000,100.000000,13.000000,0.000000,0.527098,0.453125,0.484375,-0.531250,1.031266,0.031250,-0.125002,-76.563667,-36.313946,9.538904,,,,,,,,,,,,,,,,,,,,,,,,,
1594579773.971990,27.000000,0.000000,4232.820313,4340.512695,4172.820313,4139.487305,4275.897461,0.000000,4.000000,,,,0.000000,4.000000,4.000000,4.000000,4.000000,4.000000,100.000000,,,,,,,,,,,,,,,,,,,,,,,,,,,,,,,,,,,,,
1594579773.979686,28.000000,0.000000,4249.230957,4334.358887,4181.025879,4158.974121,4296.922852,0.000000,4.000000,,,,0.000000,4.000000,4.000000,4.000000,4.000000,4.000000,100.000000,14.000000,0.000000,0.527098,0.453125,0.484375,-0.531250,1.031266,0.062501,-0.156252,-76.563667,-36.510735,12.413198,,,,,,,,,,,,,,,,,,,,,,,,,
1594579773.987582,29.000000,0.000000,4264.615234,4336.410156,4190.256348,4192.307617,4308.717773,0.000000,4.000000,,,,0.000000,4.000000,4.000000,4.000000,4.000000,4.000000,100.000000,,,,,,,,,,,,,,,,,,,,,,,,,,,,,,,,,,,,,
1594579773.995478,30.000000,0.000000,4269.230957,4338.461426,4189.743652,4182.563965,4300.512695,0.000000,4.000000,,,,0.000000,4.000000,4.000000,4.000000,4.000000,4.000000,100.000000,15.000000,0.000000,0.527098,0.453125,0.484375,-0.531250,1.031266,0.062501,-0.125002,-76.563667,-36.687843,11.171878,,,,,,,,,,,,,,,,,,,,,,,,,
1594579774.003374,31.000000,0.000000,4282.051270,4346.666504,4194.358887,4152.307617,4300.000000,0.000000,4.000000,,,,0.000000,4.000000,4.000000,4.000000,4.000000,4.000000,100.000000,,,,,,,,,,,,,,,,,,,,,,,,,,,,,,,,,,,,,
1594579774.011070,32.000000,0.000000,4295.897461,4350.769043,4197.436035,4156.922852,4303.589844,0.000000,4.000000,,,,0.000000,4.000000,4.000000,4.000000,4.000000,4.000000,100.000000,16.000000,0.000000,0.527098,0.453125,0.484375,-0.531250,1.000015,0.062501,-0.125002,-76.563667,-36.847244,13.882874,,,,,,,,,,,,,,,,,,,,,,,,,
1594579774.018966,33.000000,0.000000,4280.000000,4328.205078,4172.820313,4158.461426,4283.077148,0.000000,4.000000,,,,0.000000,4.000000,4.000000,4.000000,4.000000,4.000000,100.000000,,,,,,,,,,,,,,,,,,,,,,,,,,,,,,,,,,,,,
1594579774.026661,34.000000,0.000000,4251.794922,4307.692383,4145.128418,4129.743652,4259.487305,0.000000,4.000000,,,,0.000000,4.000000,4.000000,4.000000,4.000000,4.000000,100.000000,17.000000,0.000000,0.527098,0.453125,0.484375,-0.531250,1.000015,0.062501,-0.125002,-76.563667,-36.990704,12.494586,,,,,,,,,,,,,,,,,,,,,,,,,
1594579774.034357,35.000000,0.000000,4253.333496,4317.948730,4150.769043,4125.128418,4270.769043,0.000000,4.000000,,,,0.000000,4.000000,4.000000,4.000000,4.000000,4.000000,100.000000,,,,,,,,,,,,,,,,,,,,,,,,,,,,,,,,,,,,,
1594579774.042053,36.000000,0.000000,4284.615234,4338.461426,4179.487305,4165.128418,4302.563965,0.000000,4.000000,,,,0.000000,4.000000,4.000000,4.000000,4.000000,4.000000,100.000000,18.000000,0.000000,0.527098,0.453125,0.484375,-0.531250,1.031266,0.062501,-0.125002,-76.563667,-37.119816,11.245127,,,,,,,,,,,,,,,,,,,,,,,,,
1594579774.049949,37.000000,0.000000,4306.153809,4344.615234,4204.102539,4205.641113,4323.077148,0.000000,4.000000,,,,0.000000,4.000000,4.000000,4.000000,4.000000,4.000000,100.000000,,,,,,,,,,,,,,,,,,,,,,,,,,,,,,,,,,,,,
1594579774.057845,38.000000,0.000000,4292.307617,4336.410156,4200.512695,4188.205078,4312.307617,0.000000,4.000000,,,,0.000000,4.000000,4.000000,4.000000,4.000000,4.000000,100.000000,19.000000,0.000000,0.527098,0.453125,0.484375,-0.531250,1.000015,0.031250,-0.125002,-76.563667,-33.407833,10.120614,,,,,,,,,,,,,,,,,,,,,,,,,
1594579774.065740,39.000000,0.000000,4264.102539,4307.692383,4166.153809,4132.307617,4278.974121,0.000000,4.000000,,,,0.000000,4.000000,4.000000,4.000000,4.000000,4.000000,100.000000,,,,,,,,,,,,,,,,,,,,,,,,,,,,,,,,,,,,,
1594579774.073436,40.000000,0.000000,4262.563965,4293.333496,4145.641113,4117.948730,4266.666504,0.000000,4.000000,,,,0.000000,4.000000,4.000000,4.000000,4.000000,4.000000,100.000000,20.000000,0.000000,0.527098,0.453125,0.484375,-0.531250,1.031266,0.031250,-0.125002,-76.563667,-33.895233,9.108553,,,,,,,,,,,,,,,,,,,,,,,,,
1594579774.081332,41.000000,0.000000,4290.256348,4313.846191,4167.179688,4145.128418,4286.666504,0.000000,4.000000,,,,0.000000,4.000000,4.000000,4.000000,4.000000,4.000000,100.000000,,,,,,,,,,,,,28.319668,15.082343,6.184957,6.016164,1.578520,3.735888,5.814511,2.348478,3.068995,0.897724,16.776823,15.345365,6.772327,5.969680,1.313264,14.478131,10.267140,8.985409,12.206932,5.362809,18.737268,14.368123,4.973711,4.987928,1.522913
1594579774.089028,42.000000,0.000000,4321.025879,4332.307617,4192.820313,4151.282227,4309.743652,0.000000,4.000000,,,,0.000000,4.000000,4.000000,4.000000,4.000000,4.000000,100.000000,21.000000,0.000000,0.527098,0.453125,0.484375,-0.531250,1.031266,0.062501,-0.125002,-76.563667,-34.333893,8.197698,,,,,,,,,,,,,,,,,,,,,,,,,
1594579774.096924,43.000000,0.000000,4343.077148,4332.307617,4190.769043,4155.384766,4322.563965,0.000000,4.000000,,,,0.000000,4.000000,4.000000,4.000000,4.000000,4.000000,100.000000,,,,,,,,,,,,,,,,,,,,,,,,,,,,,,,,,,,,,
1594579774.104820,44.000000,0.000000,4364.615234,4340.512695,4195.897461,4200.512695,4337.948730,0.000000,4.000000,,,,0.000000,4.000000,4.000000,4.000000,4.000000,4.000000,100.000000,22.000000,0.000000,0.527098,0.453125,0.484375,-0.531250,1.031266,0.031250,-0.125002,-76.563667,-34.728687,7.377928,,,,,,,,,,,,,,,,,,,,,,,,,
1594579774.112716,45.000000,0.000000,4371.282227,4342.563965,4211.282227,4214.871582,4343.077148,0.000000,4.000000,,,,0.000000,4.000000,4.000000,4.000000,4.000000,4.000000,100.000000,,,,,,,,,,,,,,,,,,,,,,,,,,,,,,,,,,,,,
1594579774.120611,46.000000,0.000000,4356.410156,4342.563965,4203.077148,4177.436035,4329.230957,0.000000,4.000000,,,,0.000000,4.000000,4.000000,4.000000,4.000000,4.000000,100.000000,23.000000,0.000000,0.527098,0.453125,0.484375,-0.531250,1.031266,0.062501,-0.125002,-76.563667,-35.084003,10.468319,,,,,,,,,,,,,,,,,,,,,,,,,
1594579774.128507,47.000000,0.000000,4348.717773,4342.563965,4185.641113,4163.077148,4314.871582,0.000000,4.000000,,,,0.000000,4.000000,4.000000,4.000000,4.000000,4.000000,100.000000,,,,,,,,,,,,,,,,,,,,,,,,,,,,,,,,,,,,,
1594579774.136202,48.000000,0.000000,4351.282227,4330.256348,4179.487305,4163.077148,4303.589844,0.000000,4.000000,,,,0.000000,4.000000,4.000000,4.000000,4.000000,4.000000,100.000000,24.000000,0.000000,0.527098,0.453125,0.484375,-0.531250,1.000015,0.062501,-0.125002,-76.563667,-35.403786,9.421487,,,,,,,,,,,,,,,,,,,,,,,,,
1594579774.143898,49.000000,0.000000,4344.102539,4317.948730,4174.871582,4158.974121,4293.333496,0.000000,4.000000,,,,0.000000,4.000000,4.000000,4.000000,4.000000,4.000000,100.000000,,,,,,,,,,,,,,,,,,,,,,,,,,,,,,,,,,,,,
1594579774.151594,50.000000,0.000000,4339.487305,4322.051270,4162.051270,4160.512695,4286.153809,0.000000,4.000000,,,,0.000000,4.000000,4.000000,4.000000,4.000000,4.000000,100.000000,25.000000,0.000000,0.527098,0.453125,0.484375,-0.531250,1.031266,0.031250,-0.125002,-76.563667,-35.691589,8.479338,,,,,,,,,,,,,,,,,,,,,,,,,
1594579774.159489,51.000000,0.000000,4343.589844,4328.205078,4165.128418,4159.487305,4280.512695,0.000000,4.000000,,,,0.000000,4.000000,4.000000,4.000000,4.000000,4.000000,100.000000,,,,,,,,,,,,,,,,,,,,,,,,,,,,,,,,,,,,,
1594579774.167185,52.000000,0.000000,4338.461426,4330.256348,4180.512695,4161.538574,4269.230957,0.000000,4.000000,,,,0.000000,4.000000,4.000000,4.000000,4.000000,4.000000,100.000000,26.000000,0.000000,0.527098,0.453125,0.484375,-0.531250,1.000015,0.062501,-0.156252,-76.563667,-32.122433,7.631404,,,,,,,,,,,,,,,,,,,,,,,,,
1594579774.174881,53.000000,0.000000,4304.615234,4309.743652,4151.794922,4149.230957,4234.871582,0.000000,4.000000,,,,0.000000,4.000000,4.000000,4.000000,4.000000,4.000000,100.000000,,,,,,,,,,,,,,,,,,,,,,,,,,,,,,,,,,,,,
1594579774.182577,54.000000,0.000000,4269.230957,4278.974121,4110.256348,4105.128418,4203.077148,0.000000,4.000000,,,,0.000000,4.000000,4.000000,4.000000,4.000000,4.000000,100.000000,27.000000,0.000000,0.527098,0.453125,0.484375,-0.531250,1.031266,0.031250,-0.125002,-76.563667,-32.738373,6.868264,,,,,,,,,,,,,,,,,,,,,,,,,
1594579774.190272,55.000000,0.000000,4265.128418,4289.230957,4107.692383,4064.102539,4204.615234,0.000000,4.000000,,,,0.000000,4.000000,4.000000,4.000000,4.000000,4.000000,100.000000,,,,,,,,,,,,,,,,,,,,,,,,,,,,,,,,,,,,,
1594579774.197969,56.000000,0.000000,4272.307617,4315.897461,4108.717773,4069.230713,4207.692383,0.000000,4.000000,,,,0.000000,4.000000,4.000000,4.000000,4.000000,4.000000,100.000000,28.000000,0.000000,0.527098,0.453125,0.484375,-0.531250,1.031266,0.062501,-0.125002,-76.563667,-29.464535,6.181437,,,,,,,,,,,,,,,,,,,,,,,,,
1594579774.205864,57.000000,0.000000,4272.307617,4313.846191,4104.102539,4114.871582,4203.589844,0.000000,4.000000,,,,0.000000,4.000000,4.000000,4.000000,4.000000,4.000000,100.000000,,,,,,,,,,,,,28.083639,11.097738,4.880495,5.438680,1.463796,4.619355,4.579218,1.990409,2.757762,0.916186,16.394232,11.827050,5.183479,5.302078,1.224190,15.714202,7.800976,7.141501,11.540504,5.144237,19.324074,10.205219,3.573915,4.654595,1.412565
1594579774.213560,58.000000,0.000000,4272.820313,4313.846191,4117.948730,4112.820313,4214.358887,0.000000,4.000000,,,,0.000000,4.000000,4.000000,4.000000,4.000000,4.000000,100.000000,29.000000,0.000000,0.527098,0.453125,0.484375,-0.531250,1.031266,0.062501,-0.156252,-76.563667,-30.346264,9.391477,,,,,,,,,,,,,,,,,,,,,,,,,
1594579774.221456,59.000000,0.000000,4280.512695,4328.205078,4128.717773,4054.871826,4225.128418,0.000000,4.000000,,,,0.000000,4.000000,4.000000,4.000000,4.000000,4.000000,100.000000,,,,,,,,,,,,,,,,,,,,,,,,,,,,,,,,,,,,,
1594579774.229152,60.000000,0.000000,4285.641113,4328.205078,4117.948730,4026.153809,4219.487305,0.000000,4.000000,,,,0.000000,4.000000,4.000000,4.000000,4.000000,4.000000,100.000000,30.000000,0.000000,0.527098,0.453125,0.484375,-0.531250,1.031266,0.062501,-0.125002,-76.563667,-27.311638,8.452330,,,,,,,,,,,,,,,,,,,,,,,,,
1594579774.236848,61.000000,0.000000,4270.769043,4315.897461,4103.589844,4063.076904,4212.820313,0.000000,4.000000,,,,0.000000,4.000000,4.000000,4.000000,4.000000,4.000000,100.000000,,,,,,,,,,,,,,,,,,,,,,,,,,,,,,,,,,,,,
1594579774.244544,62.000000,0.000000,4238.461426,4307.692383,4091.794922,4090.769287,4201.025879,0.000000,4.000000,,,,0.000000,4.000000,4.000000,4.000000,4.000000,4.000000,100.000000,31.000000,0.000000,0.527098,0.453125,0.484375,-0.531250,1.031266,0.062501,-0.125002,-76.563667,-28.408657,7.607097,,,,,,,,,,,,,,,,,,,,,,,,,
1594579774.252239,63.000000,0.000000,4207.692383,4297.436035,4078.974365,4113.333496,4173.333496,0.000000,4.000000,,,,0.000000,4.000000,4.000000,4.000000,4.000000,4.000000,100.000000,,,,,,,,,,,,,,,,,,,,,,,,,,,,,,,,,,,,,
1594579774.259935,64.000000,0.000000,4210.769043,4307.692383,4081.538574,4142.563965,4175.384766,450.000000,4.000000,,,,0.000000,4.000000,4.000000,4.000000,4.000000,4.000000,100.000000,32.000000,0.000000,0.527098,0.453125,0.484375,-0.531250,1.031266,0.062501,-0.156252,-76.563667,-29.395975,10.674570,,,,,,,,,,,,,,,,,,,,,,,,,
1594579774.267831,65.000000,0.000000,4243.589844,4330.256348,4103.077148,4096.922852,4211.282227,450.000000,4.000000,,,,0.000000,4.000000,4.000000,4.000000,4.000000,4.000000,100.000000,,,,,,,,,,,,,,,,,,,,,,,,,,,,,,,,,,,,,
1594579774.275527,66.000000,0.000000,4259.487305,4334.358887,4114.358887,4050.256348,4222.563965,1023.000000,4.000000,,,,0.000000,4.000000,4.000000,4.000000,4.000000,4.000000,100.000000,33.000000,0.000000,0.527098,0.453125,0.484375,-0.531250,1.031266,0.062501,-0.125002,-76.563667,-30.284561,9.607113,,,,,,,,,,,,,,,,,,,,,,,,,
1594579774.283423,67.000000,0.000000,4248.717773,4324.102539,4108.717773,4126.153809,4212.820313,450.000000,4.000000,,,,0.000000,4.000000,4.000000,4.000000,4.000000,4.000000,100.000000,,,,,,,,,,,,,,,,,,,,,,,,,,,,,,,,,,,,,
1594579774.291119,68.000000,0.000000,4239.487305,4317.948730,4105.641113,4194.358887,4214.358887,1023.000000,4.000000,,,,0.000000,4.000000,4.000000,4.000000,4.000000,4.000000,100.000000,34.000000,0.000000,0.527098,0.453125,0.484375,-0.531250,1.031266,0.062501,-0.156252,-76.563667,-31.084288,8.646401,,,,,,,,,,,,,,,,,,,,,,,,,
1594579774.299014,69.000000,0.000000,4248.205078,4309.743652,4103.589844,4129.230957,4215.897461,450.000000,4.000000,,,,0.000000,4.000000,4.000000,4.000000,4.000000,4.000000,100.000000,,,,,,,,,,,,,,,,,,,,,,,,,,,,,,,,,,,,,
1594579774.306910,70.000000,0.000000,4249.743652,4307.692383,4096.922852,4073.333252,4204.102539,1023.000000,4.000000,,,,0.000000,4.000000,4.000000,4.000000,4.000000,4.000000,100.000000,35.000000,0.000000,0.527098,0.453125,0.484375,-0.531250,1.031266,0.031250,-0.125002,-76.563667,-31.804043,7.781762,,,,,,,,,,,,,,,,,,,,,,,,,
1594579774.314806,71.000000,0.000000,4235.384766,4301.538574,4090.769287,4105.641113,4195.897461,450.000000,4.000000,,,,0.000000,4.000000,4.000000,4.000000,4.000000,4.000000,100.000000,,,,,,,,,,,,,,,,,,,,,,,,,,,,,,,,,,,,,
1594579774.322702,72.000000,0.000000,4245.128418,4293.333496,4098.974121,4132.820313,4207.179688,450.000000,4.000000,,,,0.000000,4.000000,4.000000,4.000000,4.000000,4.000000,100.000000,36.000000,0.000000,0.527098,0.453125,0.484375,-0.531250,1.031266,0.062501,-0.156252,-76.563667,-32.451820,7.003585,,,,,,,,,,,,,,,,,,,,,,,,,
1594579774.330597,73.000000,0.000000,4261.025879,4303.589844,4105.641113,4135.384766,4214.871582,1023.000000,4.000000,,,,0.000000,4.000000,4.000000,4.000000,4.000000,4.000000,100.000000,,,,,,,,,,,,,26.368732,7.667490,3.673979,4.803091,1.306279,5.994096,3.428344,1.605291,2.401187,0.896646,16.218683,8.240499,3.920795,4.547145,1.120676,17.047592,5.379283,5.982630,10.428445,4.860620,20.054617,6.412569,2.506576,4.332936,1.270879
1594579774.338293,74.000000,0.000000,4253.333496,4315.897461,4102.051270,4112.820313,4205.128418,450.000000,4.000000,,,,0.000000,4.000000,4.000000,4.000000,4.000000,4.000000,100.000000,37.000000,0.000000,0.527098,0.453125,0.484375,-0.531250,1.031266,0.062501,-0.156252,-76.563667,-33.034824,6.303227,,,,,,,,,,,,,,,,,,,,,,,,,
1594579774.346189,75.000000,0.000000,4261.538574,4315.897461,4110.256348,4101.538574,4209.743652,1023.000000,4.000000,,,,0.000000,4.000000,4.000000,4.000000,4.000000,4.000000,100.000000,,,,,,,,,,,,,,,,,,,,,,,,,,,,,,,,,,,,,
1594579774.353885,76.000000,0.000000,4284.102539,4311.794922,4117.948730,4124.615234,4227.692383,450.000000,4.000000,,,,0.000000,4.000000,4.000000,4.000000,4.000000,4.000000,100.000000,38.000000,0.000000,0.527098,0.453125,0.484375,-0.531250,1.031266,0.062501,-0.125002,-76.563667,-33.559525,9.501088,,,,,,,,,,,,,,,,,,,,,,,,,
1594579774.361781,77.000000,0.000000,4291.282227,4322.051270,4119.487305,4136.410156,4240.000000,450.000000,4.000000,,,,0.000000,4.000000,4.000000,4.000000,4.000000,4.000000,100.000000,,,,,,,,,,,,,,,,,,,,,,,,,,,,,,,,,,,,,
1594579774.369677,78.000000,0.000000,4284.102539,4326.153809,4123.077148,4116.922852,4239.487305,450.000000,4.000000,,,,0.000000,4.000000,4.000000,4.000000,4.000000,4.000000,100.000000,39.000000,0.000000,0.527098,0.453125,0.484375,-0.531250,1.031266,0.062501,-0.156252,-76.563667,-34.031754,8.550979,,,,,,,,,,,,,,,,,,,,,,,,,
1594579774.377572,79.000000,0.000000,4266.666504,4303.589844,4116.922852,4108.717773,4220.512695,1023.000000,4.000000,,,,0.000000,4.000000,4.000000,4.000000,4.000000,4.000000,100.000000,,,,,,,,,,,,,,,,,,,,,,,,,,,,,,,,,,,,,
1594579774.385468,80.000000,0.000000,4256.410156,4299.487305,4111.794922,4130.769043,4207.179688,450.000000,4.000000,,,,0.000000,4.000000,4.000000,4.000000,4.000000,4.000000,100.000000,40.000000,0.000000,0.527098,0.453125,0.484375,-0.531250,1.031266,0.062501,-0.125002,-76.563667,-34.456764,7.695881,,,,,,,,,,,,,,,,,,,,,,,,,
1594579774.393364,81.000000,0.000000,4267.692383,4320.000000,4125.641113,4131.794922,4221.025879,450.000000,4.000000,,,,0.000000,4.000000,4.000000,4.000000,4.000000,4.000000,100.000000,,,,,,,,,,,,,,,,,,,,,,,,,,,,,,,,,,,,,
1594579774.401160,82.000000,0.000000,4289.230957,4334.358887,4151.794922,4131.282227,4247.179688,450.000000,4.000000,,,,0.000000,4.000000,4.000000,4.000000,4.000000,4.000000,100.000000,41.000000,0.000000,0.512300,0.453125,0.500000,-0.531250,1.031266,0.062501,-0.125002,-76.563667,-31.011087,6.926293,,,,,,,,,,,,,,,,,,,,,,,,,
1594579774.409056,83.000000,0.000000,4298.974121,4330.256348,4163.589844,4158.974121,4255.897461,1023.000000,4.000000,,,,0.000000,4.000000,4.000000,4.000000,4.000000,4.000000,100.000000,,,,,,,,,,,,,,,,,,,,,,,,,,,,,,,,,,,,,
1594579774.416752,84.000000,0.000000,4277.948730,4305.641113,4140.512695,4144.615234,4224.615234,450.000000,4.000000,,,,0.000000,4.000000,4.000000,4.000000,4.000000,4.000000,100.000000,42.000000,0.000000,0.512300,0.453125,0.500000,-0.531250,1.031266,0.062501,-0.125002,-76.563667,-31.738161,6.233664,,,,,,,,,,,,,,,,,,,,,,,,,
1594579774.424648,85.000000,0.000000,4252.307617,4293.333496,4114.358887,4105.641113,4198.974121,450.000000,4.000000,,,,0.000000,4.000000,4.000000,4.000000,4.000000,4.000000,100.000000,,,,,,,,,,,,,,,,,,,,,,,,,,,,,,,,,,,,,
1594579774.432344,86.000000,0.000000,4256.410156,4301.538574,4108.205078,4109.230957,4207.692383,450.000000,4.000000,,,,0.000000,4.000000,4.000000,4.000000,4.000000,4.000000,100.000000,43.000000,0.000000,0.512300,0.453125,0.500000,-0.531250,1.031266,0.062501,-0.125002,-76.563667,-28.564346,5.610297,,,,,,,,,,,,,,,,,,,,,,,,,
1594579774.440039,87.000000,0.000000,4268.717773,4301.538574,4113.333496,4101.025879,4219.487305,1023.000000,4.000000,,,,0.000000,4.000000,4.000000,4.000000,4.000000,4.000000,100.000000,,,,,,,,,,,,,,,,,,,,,,,,,,,,,,,,,,,,,
1594579774.447735,88.000000,0.000000,4264.615234,4301.538574,4118.461426,4077.435791,4216.922852,450.000000,4.000000,,,,0.000000,4.000000,4.000000,4.000000,4.000000,4.000000,100.000000,44.000000,0.000000,0.512300,0.453125,0.500000,-0.531250,1.031266,0.093751,-0.125002,-76.563667,-25.707911,5.049268,,,,,,,,,,,,,,,,,,,,,,,,,
1594579774.455631,89.000000,0.000000,4258.461426,4303.589844,4114.358887,4105.641113,4208.717773,450.000000,4.000000,,,,0.000000,4.000000,4.000000,4.000000,4.000000,4.000000,100.000000,,,,,,,,,,,,,24.040298,5.524314,2.659595,4.284181,1.152156,7.822773,2.668809,1.264673,2.116423,0.853772,16.360598,5.401973,3.033601,3.912840,1.035411,18.264231,3.462483,5.433306,9.159215,4.532927,20.831034,3.740255,1.851287,4.094877,1.149636
1594579774.463327,90.000000,0.000000,4256.410156,4299.487305,4101.025879,4130.769043,4202.563965,450.000000,4.000000,,,,0.000000,4.000000,4.000000,4.000000,4.000000,4.000000,100.000000,45.000000,0.000000,0.512300,0.453125,0.500000,-0.531250,1.031266,0.093751,-0.125002,-76.563667,-26.965303,4.544341,,,,,,,,,,,,,,,,,,,,,,,,,
1594579774.471223,91.000000,0.000000,4240.512695,4291.282227,4090.256348,4090.256348,4191.282227,1023.000000,4.000000,,,,0.000000,4.000000,4.000000,4.000000,4.000000,4.000000,100.000000,,,,,,,,,,,,,,,,,,,,,,,,,,,,,,,,,,,,,
1594579774.478919,92.000000,0.000000,4214.871582,4289.230957,4083.589844,4054.358887,4175.897461,450.000000,4.000000,,,,0.000000,4.000000,4.000000,4.000000,4.000000,4.000000,100.000000,46.000000,0.000000,0.512300,0.453125,0.500000,-0.531250,1.000015,0.093751,-0.125002,-76.563667,-24.268772,4.089907,,,,,,,,,,,,,,,,,,,,,,,,,
1594579774.486814,93.000000,0.000000,4205.641113,4285.128418,4074.358887,4063.076904,4163.589844,450.000000,4.000000,,,,0.000000,4.000000,4.000000,4.000000,4.000000,4.000000,100.000000,,,,,,,,,,,,,,,,,,,,,,,,,,,,,,,,,,,,,
1594579774.494510,94.000000,0.000000,4213.333496,4283.077148,4067.179443,4065.641113,4156.922852,450.000000,4.000000,,,,0.000000,4.000000,4.000000,4.000000,4.000000,4.000000,100.000000,47.000000,0.000000,0.512300,0.453125,0.500000,-0.531250,1.000015,0.062501,-0.125002,-76.563667,-25.670078,7.509099,,,,,,,,,,,,,,,,,,,,,,,,,
1594579774.502406,95.000000,0.000000,4223.077148,4291.282227,4073.333252,4047.179443,4162.563965,1023.000000,4.000000,,,,0.000000,4.000000,4.000000,4.000000,4.000000,4.000000,100.000000,,,,,,,,,,,,,,,,,,,,,,,,,,,,,,,,,,,,,
1594579774.510102,96.000000,0.000000,4220.512695,4297.436035,4083.076904,4041.025635,4175.897461,450.000000,4.000000,,,,0.000000,4.000000,4.000000,4.000000,4.000000,4.000000,100.000000,48.000000,0.000000,0.512300,0.453125,0.500000,-0.531250,1.031266,0.093751,-0.125002,-76.563667,-23.103071,10.586373,,,,,,,,,,,,,,,,,,,,,,,,,
1594579774.517998,97.000000,0.000000,4220.000000,4299.487305,4097.436035,4060.512939,4195.384766,450.000000,4.000000,,,,0.000000,4.000000,4.000000,4.000000,4.000000,4.000000,100.000000,,,,,,,,,,,,,,,,,,,,,,,,,,,,,,,,,,,,,
1594579774.525694,98.000000,0.000000,4252.820313,4317.948730,4124.102539,4104.102539,4218.974121,450.000000,4.000000,,,,0.000000,4.000000,4.000000,4.000000,4.000000,4.000000,100.000000,49.000000,0.000000,0.512300,0.453125,0.500000,-0.531250,1.000015,0.093751,-0.125002,-76.563667,-24.620947,13.355919,,,,,,,,,,,,,,,,,,,,,,,,,
1594579774.533589,99.000000,0.000000,4261.538574,4317.948730,4137.948730,4133.846191,4215.384766,1023.000000,4.000000,,,,0.000000,4.000000,4.000000,4.000000,4.000000,4.000000,100.000000,,,,,,,,,,,,,,,,,,,,,,,,,,,,,,,,,,,,,
1594579774.541286,100.000000,0.000000,4218.461426,4291.282227,4115.384766,4103.077148,4180.512695,450.000000,4.000000,,,,0.000000,4.000000,4.000000,4.000000,4.000000,4.000000,100.000000,50.000000,0.000000,0.512300,0.453125,0.500000,-0.531250,1.000015,0.093751,-0.093751,-76.563667,-25.987036,12.020328,,,,,,,,,,,,,,,,,,,,,,,,,
1594579774.549181,101.000000,0.000000,4193.333496,4272.820313,4086.153809,4053.333252,4158.461426,450.000000,4.000000,,,,0.000000,4.000000,4.000000,4.000000,4.000000,4.000000,100.000000,,,,,,,,,,,,,,,,,,,,,,,,,,,,,,,,,,,,,
1594579774.556877,102.000000,0.000000,4203.589844,4283.077148,4078.974365,4055.384521,4156.922852,450.000000,4.000000,,,,0.000000,4.000000,4.000000,4.000000,4.000000,4.000000,100.000000,51.000000,0.000000,0.512300,0.453125,0.500000,-0.531250,1.031266,0.093751,-0.093751,-76.563667,-27.216516,10.818295,,,,,,,,,,,,,,,,,,,,,,,,,
1594579774.564573,103.000000,0.000000,4216.922852,4309.743652,4094.358887,4085.128174,4164.102539,1023.000000,4.000000,,,,0.000000,4.000000,4.000000,4.000000,4.000000,4.000000,100.000000,,,,,,,,,,,,,,,,,,,,,,,,,,,,,,,,,,,,,
1594579774.572269,104.000000,0.000000,4218.461426,4322.051270,4103.589844,4073.846191,4172.307617,450.000000,4.000000,,,,0.000000,4.000000,4.000000,4.000000,4.000000,4.000000,100.000000,52.000000,0.000000,0.512300,0.453125,0.500000,-0.531250,1.031266,0.062501,-0.093751,-76.563667,-28.323048,9.736465,,,,,,,,,,,,,,,,,,,,,,,,,
1594579774.579964,105.000000,0.000000,4216.922852,4311.794922,4094.358887,4056.410156,4169.743652,450.000000,4.000000,,,,0.000000,4.000000,4.000000,4.000000,4.000000,4.000000,100.000000,,,,,,,,,,,,,21.937408,4.804635,1.957862,4.013772,1.046284,9.712605,2.400999,1.057215,1.987212,0.812591,16.554634,3.654299,2.537468,3.549666,0.993991,19.201942,2.283658,5.243189,8.116145,4.230905,21.372896,2.428449,1.624036,3.998110,1.085114
1594579774.587661,106.000000,0.000000,4214.871582,4299.487305,4090.769287,4078.461426,4161.025879,450.000000,4.000000,,,,0.000000,4.000000,4.000000,4.000000,4.000000,4.000000,100.000000,53.000000,0.000000,0.512300,0.453125,0.500000,-0.531250,1.031266,0.093751,-0.093751,-76.563667,-25.490744,8.762818,,,,,,,,,,,,,,,,,,,,,,,,,
1594579774.595556,107.000000,0.000000,4212.820313,4297.436035,4092.307617,4079.487061,4156.410156,1023.000000,4.000000,,,,0.000000,4.000000,4.000000,4.000000,4.000000,4.000000,100.000000,,,,,,,,,,,,,,,,,,,,,,,,,,,,,,,,,,,,,
1594579774.603452,108.000000,0.000000,4217.436035,4301.538574,4097.436035,4057.948730,4165.641113,450.000000,4.000000,,,,0.000000,4.000000,4.000000,4.000000,4.000000,4.000000,100.000000,54.000000,0.000000,0.512300,0.453125,0.500000,-0.531250,1.031266,0.093751,-0.093751,-76.563667,-26.769852,11.714720,,,,,,,,,,,,,,,,,,,,,,,,,
1594579774.611348,109.000000,0.000000,4215.897461,4301.538574,4100.512695,4067.692383,4170.256348,450.000000,4.000000,,,,0.000000,4.000000,4.000000,4.000000,4.000000,4.000000,100.000000,,,,,,,,,,,,,,,,,,,,,,,,,,,,,,,,,,,,,
1594579774.619044,110.000000,0.000000,4203.077148,4291.282227,4093.846191,4087.692383,4162.051270,450.000000,4.000000,,,,0.000000,4.000000,4.000000,4.000000,4.000000,4.000000,100.000000,55.000000,0.000000,0.512300,0.453125,0.500000,-0.531250,1.031266,0.093751,-0.093751,-76.563667,-24.092867,14.371431,,,,,,,,,,,,,,,,,,,,,,,,,
1594579774.626940,111.000000,0.000000,4209.230957,4293.333496,4104.615234,4088.718018,4174.871582,1023.000000,4.000000,,,,0.000000,4.000000,4.000000,4.000000,4.000000,4.000000,100.000000,,,,,,,,,,,,,,,,,,,,,,,,,,,,,,,,,,,,,
1594579774.634836,112.000000,0.000000,4224.615234,4305.641113,4123.589844,4083.076904,4194.871582,450.000000,4.000000,,,,0.000000,4.000000,4.000000,4.000000,4.000000,4.000000,100.000000,56.000000,0.000000,0.512300,0.453125,0.500000,-0.531250,1.031266,0.062501,-0.093751,-76.563667,-25.511765,12.934288,,,,,,,,,,,,,,,,,,,,,,,,,
1594579774.642732,113.000000,0.000000,4230.256348,4315.897461,4127.179688,4089.743652,4200.000000,450.000000,4.000000,,,,0.000000,4.000000,4.000000,4.000000,4.000000,4.000000,100.000000,,,,,,,,,,,,,,,,,,,,,,,,,,,,,,,,,,,,,
1594579774.650428,114.000000,0.000000,4226.153809,4311.794922,4118.974121,4102.563965,4194.871582,450.000000,4.000000,,,,0.000000,4.000000,4.000000,4.000000,4.000000,4.000000,100.000000,57.000000,0.000000,0.512300,0.453125,0.500000,-0.531250,1.031266,0.093751,-0.125002,-76.563667,-26.788771,11.640860,,,,,,,,,,,,,,,,,,,,,,,,,
1594579774.658324,115.000000,0.000000,4198.974121,4291.282227,4097.436035,4075.897461,4179.487305,1023.000000,4.000000,,,,0.000000,4.000000,4.000000,4.000000,4.000000,4.000000,100.000000,,,,,,,,,,,,,,,,,,,,,,,,,,,,,,,,,,,,,
1594579774.666019,116.000000,0.000000,4187.179688,4285.128418,4081.538574,4047.179443,4171.282227,450.000000,4.000000,,,,0.000000,4.000000,4.000000,4.000000,4.000000,4.000000,100.000000,58.000000,0.000000,0.512300,0.453125,0.500000,-0.531250,1.031266,0.093751,-0.093751,-76.563667,-24.109894,10.476773,,,,,,,,,,,,,,,,,,,,,,,,,
1594579774.673915,117.000000,0.000000,4195.384766,4299.487305,4080.000000,4072.307617,4170.256348,450.000000,4.000000,,,,0.000000,4.000000,4.000000,4.000000,4.000000,4.000000,100.000000,,,,,,,,,,,,,,,,,,,,,,,,,,,,,,,,,,,,,
1594579774.681611,118.000000,0.000000,4183.077148,4297.436035,4073.333252,4077.435791,4157.436035,450.000000,4.000000,,,,0.000000,4.000000,4.000000,4.000000,4.000000,4.000000,100.000000,59.000000,0.000000,0.512300,0.453125,0.500000,-0.531250,1.031266,0.093751,-0.093751,-76.563667,-25.527088,9.429096,,,,,,,,,,,,,,,,,,,,,,,,,
1594579774.689507,119.000000,0.000000,4166.153809,4285.128418,4054.871826,4031.794922,4145.128418,1023.000000,4.000000,,,,0.000000,4.000000,4.000000,4.000000,4.000000,4.000000,100.000000,,,,,,,,,,,,,,,,,,,,,,,,,,,,,,,,,,,,,
1594579774.697203,120.000000,0.000000,4180.000000,4293.333496,4057.948730,4029.743652,4157.948730,450.000000,4.000000,,,,0.000000,4.000000,4.000000,4.000000,4.000000,4.000000,100.000000,60.000000,0.000000,0.512300,0.453125,0.500000,-0.531250,1.031266,0.093751,-0.125002,-76.563667,-26.802563,8.486187,,,,,,,,,,,,,,,,,,,,,,,,,
1594579774.705098,121.000000,0.000000,4213.846191,4322.051270,4095.897461,4068.718018,4197.948730,450.000000,4.000000,,,,0.000000,4.000000,4.000000,4.000000,4.000000,4.000000,100.000000,,,,,,,,,,,,,20.718884,5.021521,1.587756,4.044501,1.005376,11.192264,2.479365,1.017233,2.041620,0.793008,16.548725,2.755173,2.320678,3.520689,0.997327,19.860573,1.696007,5.105748,7.634164,4.050627,21.447969,2.122479,1.705027,4.076576,1.080727
1594579774.712794,122.000000,0.000000,4233.846191,4326.153809,4114.358887,4076.923096,4223.589844,450.000000,4.000000,,,,0.000000,4.000000,4.000000,4.000000,4.000000,4.000000,100.000000,61.000000,0.000000,0.512300,0.453125,0.500000,-0.531250,1.031266,0.093751,-0.125002,-76.563667,-27.950489,7.637568,,,,,,,,,,,,,,,,,,,,,,,,,
1594579774.720690,123.000000,0.000000,4249.743652,4311.794922,4108.717773,4100.512695,4228.205078,1023.000000,4.000000,,,,0.000000,4.000000,4.000000,4.000000,4.000000,4.000000,100.000000,,,,,,,,,,,,,,,,,,,,,,,,,,,,,,,,,,,,,
1594579774.728386,124.000000,0.000000,4270.256348,4317.948730,4121.025879,4143.589844,4242.051270,450.000000,4.000000,,,,0.000000,4.000000,4.000000,4.000000,4.000000,4.000000,100.000000,62.000000,0.000000,0.512300,0.453125,0.500000,-0.531250,1.031266,0.093751,-0.093751,-76.563667,-28.983624,6.873811,,,,,,,,,,,,,,,,,,,,,,,,,
1594579774.736282,125.000000,0.000000,4257.948730,4313.846191,4114.871582,4120.512695,4233.846191,450.000000,4.000000,,,,0.000000,4.000000,4.000000,4.000000,4.000000,4.000000,100.000000,,,,,,,,,,,,,,,,,,,,,,,,,,,,,,,,,,,,,
1594579774.744177,126.000000,0.000000,4215.384766,4289.230957,4073.846191,4051.794922,4188.205078,450.000000,4.000000,,,,0.000000,4.000000,4.000000,4.000000,4.000000,4.000000,100.000000,63.000000,0.000000,0.512300,0.453125,0.500000,-0.531250,1.031266,0.093751,-0.125002,-76.563667,-29.913445,6.186430,,,,,,,,,,,,,,,,,,,,,,,,,
1594579774.752073,127.000000,0.000000,4169.230957,4268.717773,4036.923096,4006.153809,4146.153809,241.000000,4.000000,,,,0.000000,4.000000,4.000000,4.000000,4.000000,4.000000,100.000000,,,,,,,,,,,,,,,,,,,,,,,,,,,,,,,,,,,,,
1594579774.759769,0.000000,0.000000,4146.666504,4272.820313,4035.897461,4008.205078,4139.487305,450.000000,4.000000,,,,0.000000,4.000000,4.000000,4.000000,4.000000,4.000000,100.000000,0.000000,0.000000,0.512300,0.453125,0.500000,-0.531250,1.031266,0.093751,-0.093751,-76.563667,-26.922100,9.395970,,,,,,,,,,,,,,,,,,,,,,,,,
1594579774.767464,1.000000,0.000000,4170.256348,4295.384766,4072.307617,4062.564209,4174.871582,450.000000,4.000000,,,,0.000000,4.000000,4.000000,4.000000,4.000000,4.000000,100.000000,,,,,,,,,,,,,,,,,,,,,,,,,,,,,,,,,,,,,
1594579774.775160,2.000000,0.000000,4203.077148,4313.846191,4103.589844,4104.615234,4214.871582,1023.000000,4.000000,,,,0.000000,4.000000,4.000000,4.000000,4.000000,4.000000,100.000000,1.000000,0.000000,0.512300,0.453125,0.500000,-0.531250,1.031266,0.093751,-0.093751,-76.563667,-28.058073,12.284556,,,,,,,,,,,,,,,,,,,,,,,,,
1594579774.782856,3.000000,0.000000,4200.000000,4309.743652,4094.871826,4074.358887,4215.384766,450.000000,4.000000,,,,0.000000,4.000000,4.000000,4.000000,4.000000,4.000000,100.000000,,,,,,,,,,,,,,,,,,,,,,,,,,,,,,,,,,,,,
1594579774.790552,4.000000,0.000000,4188.205078,4305.641113,4080.000000,4045.641113,4194.871582,1023.000000,4.000000,,,,0.000000,4.000000,4.000000,4.000000,4.000000,4.000000,100.000000,2.000000,0.000000,0.512300,0.453125,0.500000,-0.531250,1.031266,0.093751,-0.125002,-76.563667,-25.252266,11.056101,,,,,,,,,,,,,,,,,,,,,,,,,
1594579774.798448,5.000000,0.000000,4208.717773,4324.102539,4105.128418,4089.230713,4212.307617,450.000000,4.000000,,,,0.000000,4.000000,4.000000,4.000000,4.000000,4.000000,100.000000,,,,,,,,,,,,,,,,,,,,,,,,,,,,,,,,,,,,,
1594579774.806344,6.000000,0.000000,4248.205078,4356.922852,4149.230957,4149.743652,4258.461426,1023.000000,4.000000,,,,0.000000,4.000000,4.000000,4.000000,4.000000,4.000000,100.000000,3.000000,0.000000,0.512300,0.453125,0.500000,-0.531250,1.031266,0.093751,-0.093751,-76.563667,-26.555223,13.778674,,,,,,,,,,,,,,,,,,,,,,,,,
1594579774.814240,7.000000,0.000000,4264.102539,4371.282227,4161.025879,4154.871582,4267.692383,450.000000,4.000000,,,,0.000000,4.000000,4.000000,4.000000,4.000000,4.000000,100.000000,,,,,,,,,,,,,,,,,,,,,,,,,,,,,,,,,,,,,
1594579774.821936,8.000000,0.000000,4247.692383,4352.820313,4141.025879,4122.563965,4241.025879,450.000000,4.000000,,,,0.000000,4.000000,4.000000,4.000000,4.000000,4.000000,100.000000,4.000000,0.000000,0.512300,0.453125,0.500000,-0.531250,1.031266,0.093751,-0.093751,-76.563667,-23.899700,12.400807,,,,,,,,,,,,,,,,,,,,,,,,,
1594579774.829832,9.000000,0.000000,4232.820313,4330.256348,4125.641113,4091.281982,4224.102539,1023.000000,4.000000,,,,0.000000,4.000000,4.000000,4.000000,4.000000,4.000000,100.000000,,,,,,,,,,,,,20.472155,5.532610,1.562995,4.323436,1.014970,11.743688,2.647734,1.127008,2.240419,0.798681,16.202131,2.330640,2.273070,3.774418,1.021260,20.364721,1.522230,4.879524,7.831088,4.067364,20.904644,2.318852,1.978108,4.312014,1.106311
1594579774.837528,10.000000,0.000000,4225.128418,4330.256348,4120.000000,4072.820557,4217.948730,450.000000,4.000000,,,,0.000000,4.000000,4.000000,4.000000,4.000000,4.000000,100.000000,5.000000,0.000000,0.512300,0.453125,0.500000,-0.531250,1.031266,0.093751,-0.093751,-76.563667,-21.509731,11.160727,,,,,,,,,,,,,,,,,,,,,,,,,
1594579774.845223,11.000000,0.000000,4218.974121,4344.615234,4124.102539,4092.820557,4214.358887,1023.000000,4.000000,,,,0.000000,4.000000,4.000000,4.000000,4.000000,4.000000,100.000000,,,,,,,,,,,,,,,,,,,,,,,,,,,,,,,,,,,,,
1594579774.852919,12.000000,0.000000,4203.589844,4338.461426,4115.897461,4087.179443,4202.563965,450.000000,4.000000,,,,0.000000,4.000000,4.000000,4.000000,4.000000,4.000000,100.000000,6.000000,0.000000,0.512300,0.453125,0.500000,-0.531250,1.031266,0.093751,-0.093751,-76.563667,-19.358757,13.872837,,,,,,,,,,,,,,,,,,,,,,,,,
1594579774.860815,13.000000,0.000000,4180.512695,4311.794922,4095.384521,4051.794922,4184.102539,450.000000,4.000000,,,,0.000000,4.000000,4.000000,4.000000,4.000000,4.000000,100.000000,,,,,,,,,,,,,,,,,,,,,,,,,,,,,,,,,,,,,
1594579774.868711,14.000000,0.000000,4200.512695,4328.205078,4125.641113,4102.563965,4212.307617,450.000000,4.000000,,,,0.000000,4.000000,4.000000,4.000000,4.000000,4.000000,100.000000,7.000000,0.000000,0.496570,0.453125,0.515625,-0.531250,1.000015,0.093751,-0.093751,-76.563667,-17.422882,16.313736,,,,,,,,,,,,,,,,,,,,,,,,,
1594579774.876607,15.000000,0.000000,4243.077148,4363.077148,4169.230957,4161.025879,4264.615234,1023.000000,4.000000,,,,0.000000,4.000000,4.000000,4.000000,4.000000,4.000000,100.000000,,,,,,,,,,,,,,,,,,,,,,,,,,,,,,,,,,,,,
1594579774.884502,16.000000,0.000000,4229.743652,4344.615234,4141.538574,4111.794922,4250.769043,0.000000,4.000000,,,,0.000000,4.000000,4.000000,4.000000,4.000000,4.000000,100.000000,8.000000,0.000000,0.496570,0.453125,0.515625,-0.531250,1.031266,0.093751,-0.093751,-76.563667,-15.680593,18.510546,,,,,,,,,,,,,,,,,,,,,,,,,
1594579774.892398,17.000000,0.000000,4191.794922,4313.846191,4109.743652,4062.051270,4211.794922,0.000000,4.000000,,,,0.000000,4.000000,4.000000,4.000000,4.000000,4.000000,100.000000,,,,,,,,,,,,,,,,,,,,,,,,,,,,,,,,,,,,,
1594579774.900094,18.000000,0.000000,4205.128418,4324.102539,4131.282227,4086.666748,4228.717773,0.000000,4.000000,,,,0.000000,4.000000,4.000000,4.000000,4.000000,4.000000,100.000000,9.000000,0.000000,0.496570,0.453125,0.515625,-0.531250,1.031266,0.062501,-0.093751,-76.563667,-17.940718,16.659492,,,,,,,,,,,,,,,,,,,,,,,,,
1594579774.907990,19.000000,0.000000,4228.717773,4334.358887,4137.948730,4110.256348,4239.487305,0.000000,4.000000,,,,0.000000,4.000000,4.000000,4.000000,4.000000,4.000000,100.000000,,,,,,,,,,,,,,,,,,,,,,,,,,,,,,,,,,,,,
1594579774.915886,20.000000,0.000000,4212.307617,4317.948730,4116.922852,4101.025879,4209.743652,0.000000,4.000000,,,,0.000000,4.000000,4.000000,4.000000,4.000000,4.000000,100.000000,10.000000,0.000000,0.496570,0.453125,0.515625,-0.531250,1.000015,0.062501,-0.093751,-76.563667,-16.146646,14.993543,,,,,,,,,,,,,,,,,,,,,,,,,
1594579774.923782,21.000000,0.000000,4207.179688,4313.846191,4126.666504,4098.974121,4214.358887,0.000000,4.000000,,,,0.000000,4.000000,4.000000,4.000000,4.000000,4.000000,100.000000,,,,,,,,,,,,,,,,,,,,,,,,,,,,,,,,,,,,,
1594579774.931678,22.000000,0.000000,4227.179688,4320.000000,4139.487305,4100.000000,4242.051270,0.000000,4.000000,,,,0.000000,4.000000,4.000000,4.000000,4.000000,4.000000,100.000000,11.000000,0.000000,0.496570,0.453125,0.515625,-0.531250,1.031266,0.062501,-0.093751,-76.563667,-18.360165,13.494188,,,,,,,,,,,,,,,,,,,,,,,,,
1594579774.939573,23.000000,0.000000,4226.666504,4322.051270,4124.615234,4105.641113,4230.256348,0.000000,4.000000,,,,0.000000,4.000000,4.000000,4.000000,4.000000,4.000000,100.000000,,,,,,,,,,,,,,,,,,,,,,,,,,,,,,,,,,,,,
1594579774.947469,24.000000,0.000000,4220.000000,4326.153809,4124.615234,4119.487305,4216.410156,0.000000,4.000000,,,,0.000000,4.000000,4.000000,4.000000,4.000000,4.000000,100.000000,12.000000,0.000000,0.496570,0.453125,0.515625,-0.531250,1.031266,0.062501,-0.093751,-76.563667,-16.524149,12.144770,,,,,,,,,,,,,,,,,,,,,,,,,
1594579774.955165,25.000000,0.000000,4209.743652,4315.897461,4114.871582,4096.410156,4210.769043,0.000000,4.000000,,,,0.000000,4.000000,4.000000,4.000000,4.000000,4.000000,100.000000,,,,,,,,,,,,,20.656549,5.952515,1.905961,4.703647,1.040930,11.153749,2.687398,1.334186,2.501567,0.819400,15.569859,2.229186,2.365400,4.170968,1.032314,20.740566,1.724200,4.657130,8.561017,4.296633,19.685984,2.786981,2.463495,4.633506,1.115418
1594579774.962861,26.000000,0.000000,4191.794922,4301.538574,4087.179443,4049.230713,4197.436035,0.000000,4.000000,,,,0.000000,4.000000,4.000000,4.000000,4.000000,4.000000,100.000000,13.000000,0.000000,0.496570,0.453125,0.515625,-0.531250,1.031266,0.093751,-0.093751,-76.563667,-14.871734,10.930292,,,,,,,,,,,,,,,,,,,,,,,,,
1594579774.970556,27.000000,0.000000,4209.743652,4322.051270,4105.641113,4067.179443,4214.358887,0.000000,4.000000,,,,0.000000,4.000000,4.000000,4.000000,4.000000,4.000000,100.000000,,,,,,,,,,,,,,,,,,,,,,,,,,,,,,,,,,,,,
1594579774.978252,28.000000,0.000000,4227.179688,4330.256348,4128.205078,4117.948730,4234.871582,0.000000,4.000000,,,,0.000000,4.000000,4.000000,4.000000,4.000000,4.000000,100.000000,14.000000,0.000000,0.496570,0.453125,0.515625,-0.531250,1.031266,0.093751,-0.093751,-76.563667,-13.384561,9.837263,,,,,,,,,,,,,,,,,,,,,,,,,
1594579774.985948,29.000000,0.000000,4202.563965,4305.641113,4101.025879,4113.333496,4217.436035,0.000000,4.000000,,,,0.000000,4.000000,4.000000,4.000000,4.000000,4.000000,100.000000,,,,,,,,,,,,,,,,,,,,,,,,,,,,,,,,,,,,,
1594579774.993644,30.000000,0.000000,4190.769043,4299.487305,4085.641113,4090.769287,4207.179688,0.000000,4.000000,,,,0.000000,4.000000,4.000000,4.000000,4.000000,4.000000,100.000000,15.000000,0.000000,0.496570,0.453125,0.515625,-0.531250,1.031266,0.093751,-0.093751,-76.563667,-12.046104,8.853537,,,,,,,,,,,,,,,,,,,,,,,,,
1594579775.001540,31.000000,0.000000,4212.820313,4315.897461,4107.692383,4095.384521,4231.282227,0.000000,4.000000,,,,0.000000,4.000000,4.000000,4.000000,4.000000,4.000000,100.000000,,,,,,,,,,,,,,,,,,,,,,,,,,,,,,,,,,,,,
1594579775.009236,32.000000,0.000000,4218.461426,4311.794922,4111.282227,4094.358887,4238.461426,0.000000,4.000000,,,,0.000000,4.000000,4.000000,4.000000,4.000000,4.000000,100.000000,16.000000,0.000000,0.496570,0.453125,0.515625,-0.531250,1.031266,0.093751,-0.093751,-76.563667,-10.841494,7.968184,,,,,,,,,,,,,,,,,,,,,,,,,
1594579775.017132,33.000000,0.000000,4208.717773,4293.333496,4098.974121,4084.102539,4217.436035,0.000000,4.000000,,,,0.000000,4.000000,4.000000,4.000000,4.000000,4.000000,100.000000,,,,,,,,,,,,,,,,,,,,,,,,,,,,,,,,,,,,,
1594579775.024828,34.000000,0.000000,4216.410156,4299.487305,4106.666504,4091.794922,4217.948730,0.000000,4.000000,,,,0.000000,4.000000,4.000000,4.000000,4.000000,4.000000,100.000000,17.000000,0.000000,0.496570,0.453125,0.515625,-0.531250,1.031266,0.093751,-0.093751,-76.563667,-13.585527,7.171365,,,,,,,,,,,,,,,,,,,,,,,,,
1594579775.032723,35.000000,0.000000,4204.102539,4303.589844,4097.948730,4081.538574,4214.871582,0.000000,4.000000,,,,0.000000,4.000000,4.000000,4.000000,4.000000,4.000000,100.000000,,,,,,,,,,,,,,,,,,,,,,,,,,,,,,,,,,,,,
1594579775.040419,36.000000,0.000000,4182.563965,4291.282227,4080.000000,4046.666748,4191.282227,0.000000,4.000000,,,,0.000000,4.000000,4.000000,4.000000,4.000000,4.000000,100.000000,18.000000,0.000000,0.496570,0.453125,0.515625,-0.531250,1.031266,0.093751,-0.093751,-76.563667,-12.226975,6.454228,,,,,,,,,,,,,,,,,,,,,,,,,
1594579775.048115,37.000000,0.000000,4188.205078,4293.333496,4084.102539,4054.358887,4185.641113,0.000000,4.000000,,,,0.000000,4.000000,4.000000,4.000000,4.000000,4.000000,100.000000,,,,,,,,,,,,,,,,,,,,,,,,,,,,,,,,,,,,,
1594579775.055811,38.000000,0.000000,4195.384766,4303.589844,4093.846191,4092.307617,4191.794922,0.000000,4.000000,,,,0.000000,4.000000,4.000000,4.000000,4.000000,4.000000,100.000000,19.000000,0.000000,0.496570,0.453125,0.515625,-0.531250,1.031266,0.093751,-0.093751,-76.563667,-11.004277,5.808805,,,,,,,,,,,,,,,,,,,,,,,,,
1594579775.063707,39.000000,0.000000,4206.666504,4309.743652,4112.820313,4110.769043,4203.589844,0.000000,4.000000,,,,0.000000,4.000000,4.000000,4.000000,4.000000,4.000000,100.000000,,,,,,,,,,,,,,,,,,,,,,,,,,,,,,,,,,,,,
1594579775.071403,40.000000,0.000000,4222.051270,4305.641113,4127.692383,4109.230957,4217.948730,0.000000,4.000000,,,,0.000000,4.000000,4.000000,4.000000,4.000000,4.000000,100.000000,20.000000,0.000000,0.496570,0.453125,0.515625,-0.531250,1.031266,0.093751,-0.093751,-76.563667,-9.903850,5.227925,,,,,,,,,,,,,,,,,,,,,,,,,
1594579775.079299,41.000000,0.000000,4218.461426,4295.384766,4110.769043,4087.692383,4215.384766,0.000000,4.000000,,,,0.000000,4.000000,4.000000,4.000000,4.000000,4.000000,100.000000,,,,,,,,,,,,,20.624569,6.520325,2.636895,5.012461,1.067116,9.655873,2.608731,1.586687,2.735629,0.848362,14.912588,2.639195,2.640228,4.539444,1.025197,20.895231,2.530893,4.731322,9.439789,4.694466,17.906725,3.730024,3.250040,4.941730,1.096487
1594579775.086994,42.000000,0.000000,4218.461426,4297.436035,4089.743652,4065.641113,4209.230957,0.000000,4.000000,,,,0.000000,4.000000,4.000000,4.000000,4.000000,4.000000,100.000000,21.000000,0.000000,0.496570,0.453125,0.515625,-0.531250,1.031266,0.093751,-0.093751,-76.563667,-12.741648,4.705132,,,,,,,,,,,,,,,,,,,,,,,,,
1594579775.094890,43.000000,0.000000,4219.487305,4281.025879,4062.051270,4030.256348,4200.000000,0.000000,4.000000,,,,0.000000,4.000000,4.000000,4.000000,4.000000,4.000000,100.000000,,,,,,,,,,,,,,,,,,,,,,,,,,,,,,,,,,,,,
1594579775.102586,44.000000,0.000000,4237.436035,4256.410156,4042.564209,4008.718018,4212.820313,0.000000,4.000000,,,,0.000000,4.000000,4.000000,4.000000,4.000000,4.000000,100.000000,22.000000,0.000000,0.496570,0.453125,0.515625,-0.531250,1.031266,0.093751,-0.093751,-76.563667,-11.467484,4.234619,,,,,,,,,,,,,,,,,,,,,,,,,
1594579775.110482,45.000000,0.000000,4301.538574,4272.820313,4073.846191,4042.051270,4271.282227,0.000000,4.000000,,,,0.000000,4.000000,4.000000,4.000000,4.000000,4.000000,100.000000,,,,,,,,,,,,,,,,,,,,,,,,,,,,,,,,,,,,,
1594579775.118178,46.000000,0.000000,4346.666504,4295.384766,4101.025879,4081.025635,4313.333496,0.000000,4.000000,,,,0.000000,4.000000,4.000000,4.000000,4.000000,4.000000,100.000000,23.000000,0.000000,0.496570,0.453125,0.515625,-0.531250,1.031266,0.093751,-0.093751,-76.563667,-10.320735,3.811157,,,,,,,,,,,,,,,,,,,,,,,,,
1594579775.126074,47.000000,0.000000,4344.102539,4287.179688,4083.076904,4077.948730,4320.512695,0.000000,4.000000,,,,0.000000,4.000000,4.000000,4.000000,4.000000,4.000000,100.000000,,,,,,,,,,,,,,,,,,,,,,,,,,,,,,,,,,,,,
1594579775.133970,48.000000,0.000000,4363.589844,4285.128418,4086.666748,4061.538574,4351.282227,0.000000,4.000000,,,,0.000000,4.000000,4.000000,4.000000,4.000000,4.000000,100.000000,24.000000,0.000000,0.496570,0.453125,0.515625,-0.531250,1.062516,0.125002,-0.093751,-76.563667,-9.288662,3.430042,,,,,,,,,,,,,,,,,,,,,,,,,
1594579775.141865,49.000000,0.000000,4402.051270,4289.230957,4111.282227,4069.230713,4391.794922,0.000000,4.000000,,,,0.000000,4.000000,4.000000,4.000000,4.000000,4.000000,100.000000,,,,,,,,,,,,,,,,,,,,,,,,,,,,,,,,,,,,,
1594579775.149761,50.000000,0.000000,4388.717773,4278.974121,4093.333252,4065.641113,4387.179688,0.000000,4.000000,,,,0.000000,4.000000,4.000000,4.000000,4.000000,4.000000,100.000000,25.000000,0.000000,0.496570,0.453125,0.515625,-0.531250,1.031266,0.093751,-0.093751,-76.563667,-8.359796,6.915221,,,,,,,,,,,,,,,,,,,,,,,,,
1594579775.157457,51.000000,0.000000,4361.538574,4274.871582,4071.794922,4047.692383,4377.436035,0.000000,4.000000,,,,0.000000,4.000000,4.000000,4.000000,4.000000,4.000000,100.000000,,,,,,,,,,,,,,,,,,,,,,,,,,,,,,,,,,,,,
1594579775.165153,52.000000,0.000000,4378.974121,4291.282227,4081.538574,4058.974365,4390.256348,0.000000,4.000000,,,,0.000000,4.000000,4.000000,4.000000,4.000000,4.000000,100.000000,26.000000,0.000000,0.496570,0.453125,0.515625,-0.531250,1.031266,0.093751,-0.093751,-76.563667,-11.351999,10.051882,,,,,,,,,,,,,,,,,,,,,,,,,
1594579775.173049,53.000000,0.000000,4380.000000,4291.282227,4071.794922,4058.461426,4370.256348,0.000000,4.000000,,,,0.000000,4.000000,4.000000,4.000000,4.000000,4.000000,100.000000,,,,,,,,,,,,,,,,,,,,,,,,,,,,,,,,,,,,,
1594579775.180944,54.000000,0.000000,4332.307617,4266.666504,4044.102539,4020.512939,4317.436035,0.000000,4.000000,,,,0.000000,4.000000,4.000000,4.000000,4.000000,4.000000,100.000000,27.000000,0.000000,0.481848,0.468750,0.515625,-0.531250,1.000015,0.093751,-0.062501,-76.563667,-10.216800,9.046694,,,,,,,,,,,,,,,,,,,,,,,,,
1594579775.188640,55.000000,0.000000,4302.051270,4274.871582,4044.615479,4011.794922,4299.487305,0.000000,4.000000,,,,0.000000,4.000000,4.000000,4.000000,4.000000,4.000000,100.000000,,,,,,,,,,,,,,,,,,,,,,,,,,,,,,,,,,,,,
1594579775.196336,56.000000,0.000000,4315.384766,4305.641113,4067.692383,4054.358887,4318.974121,0.000000,4.000000,,,,0.000000,4.000000,4.000000,4.000000,4.000000,4.000000,100.000000,28.000000,0.000000,0.481848,0.468750,0.515625,-0.531250,1.000015,0.093751,-0.062501,-76.563667,-9.195120,11.970208,,,,,,,,,,,,,,,,,,,,,,,,,
1594579775.204232,57.000000,0.000000,4333.846191,4317.948730,4093.846191,4093.846191,4329.230957,0.000000,4.000000,,,,0.000000,4.000000,4.000000,4.000000,4.000000,4.000000,100.000000,,,,,,,,,,,,,19.737740,7.676951,3.769427,5.135262,1.107313,7.747989,2.532397,1.858587,2.870298,0.890007,14.229145,3.780741,3.135010,4.756294,1.027989,20.204506,4.145417,5.348714,10.061789,5.145013,15.571799,5.432016,4.393251,5.154629,1.084374
1594579775.211928,58.000000,0.000000,4330.769043,4317.948730,4111.282227,4093.846191,4318.974121,0.000000,4.000000,,,,0.000000,4.000000,4.000000,4.000000,4.000000,4.000000,100.000000,29.000000,0.000000,0.481848,0.468750,0.515625,-0.531250,1.000015,0.093751,-0.062501,-76.563667,-12.103791,10.773188,,,,,,,,,,,,,,,,,,,,,,,,,
1594579775.219824,59.000000,0.000000,4308.717773,4324.102539,4103.589844,4054.358887,4296.410156,0.000000,4.000000,,,,0.000000,4.000000,4.000000,4.000000,4.000000,4.000000,100.000000,,,,,,,,,,,,,,,,,,,,,,,,,,,,,,,,,,,,,
1594579775.227520,60.000000,0.000000,4291.282227,4317.948730,4091.281982,4031.281982,4278.461426,0.000000,4.000000,,,,0.000000,4.000000,4.000000,4.000000,4.000000,4.000000,100.000000,30.000000,0.000000,0.481848,0.468750,0.515625,-0.531250,1.000015,0.093751,-0.062501,-76.563667,-14.721595,9.695868,,,,,,,,,,,,,,,,,,,,,,,,,
1594579775.235416,61.000000,0.000000,4281.025879,4278.974121,4096.922852,4072.307617,4269.230957,0.000000,4.000000,,,,0.000000,4.000000,4.000000,4.000000,4.000000,4.000000,100.000000,,,,,,,,,,,,,,,,,,,,,,,,,,,,,,,,,,,,,
1594579775.243112,62.000000,0.000000,4245.128418,4250.256348,4087.179443,4100.000000,4244.615234,0.000000,4.000000,,,,0.000000,4.000000,4.000000,4.000000,4.000000,4.000000,100.000000,31.000000,0.000000,0.481848,0.468750,0.515625,-0.531250,1.031266,0.093751,-0.062501,-76.563667,-17.077620,8.726281,,,,,,,,,,,,,,,,,,,,,,,,,
1594579775.251007,63.000000,0.000000,4199.487305,4262.563965,4048.205078,4055.897461,4204.102539,0.000000,4.000000,,,,0.000000,4.000000,4.000000,4.000000,4.000000,4.000000,100.000000,,,,,,,,,,,,,,,,,,,,,,,,,,,,,,,,,,,,,
1594579775.258703,64.000000,0.000000,4198.974121,4293.333496,4038.974365,4036.923096,4187.179688,450.000000,4.000000,,,,0.000000,4.000000,4.000000,4.000000,4.000000,4.000000,100.000000,32.000000,0.000000,0.481848,0.468750,0.515625,-0.531250,1.000015,0.093751,-0.062501,-76.563667,-15.369857,7.853653,,,,,,,,,,,,,,,,,,,,,,,,,
1594579775.266399,65.000000,0.000000,4240.000000,4313.846191,4083.589844,4080.000000,4215.384766,450.000000,4.000000,,,,0.000000,4.000000,4.000000,4.000000,4.000000,4.000000,100.000000,,,,,,,,,,,,,,,,,,,,,,,,,,,,,,,,,,,,,
1594579775.274095,66.000000,0.000000,4266.153809,4320.000000,4114.358887,4099.487305,4243.589844,1023.000000,4.000000,,,,0.000000,4.000000,4.000000,4.000000,4.000000,4.000000,100.000000,33.000000,0.000000,0.481848,0.468750,0.515625,-0.531250,1.031266,0.125002,-0.062501,-76.563667,-17.661055,7.068288,,,,,,,,,,,,,,,,,,,,,,,,,
1594579775.281991,67.000000,0.000000,4278.461426,4330.256348,4122.051270,4099.487305,4252.820313,450.000000,4.000000,,,,0.000000,4.000000,4.000000,4.000000,4.000000,4.000000,100.000000,,,,,,,,,,,,,,,,,,,,,,,,,,,,,,,,,,,,,
1594579775.289686,68.000000,0.000000,4307.692383,4354.871582,4155.897461,4133.846191,4272.307617,1023.000000,4.000000,,,,0.000000,4.000000,4.000000,4.000000,4.000000,4.000000,100.000000,34.000000,0.000000,0.464039,0.468750,0.515625,-0.546875,1.000015,0.125002,-0.062501,-76.563667,-15.894949,6.361459,,,,,,,,,,,,,,,,,,,,,,,,,
1594579775.297582,69.000000,0.000000,4317.948730,4365.128418,4185.641113,4157.436035,4283.077148,450.000000,4.000000,,,,0.000000,4.000000,4.000000,4.000000,4.000000,4.000000,100.000000,,,,,,,,,,,,,,,,,,,,,,,,,,,,,,,,,,,,,
1594579775.305278,70.000000,0.000000,4318.974121,4367.179688,4190.256348,4167.179688,4282.563965,1023.000000,4.000000,,,,0.000000,4.000000,4.000000,4.000000,4.000000,4.000000,100.000000,35.000000,0.000000,0.464039,0.468750,0.515625,-0.546875,1.031266,0.125002,-0.062501,-76.563667,-14.305454,9.553496,,,,,,,,,,,,,,,,,,,,,,,,,
1594579775.313174,71.000000,0.000000,4341.538574,4379.487305,4198.974121,4198.974121,4296.922852,450.000000,4.000000,,,,0.000000,4.000000,4.000000,4.000000,4.000000,4.000000,100.000000,,,,,,,,,,,,,,,,,,,,,,,,,,,,,,,,,,,,,
1594579775.320870,72.000000,0.000000,4328.717773,4371.282227,4192.820313,4184.615234,4289.743652,450.000000,4.000000,,,,0.000000,4.000000,4.000000,4.000000,4.000000,4.000000,100.000000,36.000000,0.000000,0.481848,0.468750,0.515625,-0.531250,1.031266,0.125002,-0.062501,-76.563667,-12.874909,8.598147,,,,,,,,,,,,,,,,,,,,,,,,,
1594579775.328766,73.000000,0.000000,4335.897461,4373.333496,4215.384766,4176.922852,4299.487305,1023.000000,4.000000,,,,0.000000,4.000000,4.000000,4.000000,4.000000,4.000000,100.000000,,,,,,,,,,,,,18.231514,9.620885,5.230032,5.020670,1.184896,5.970701,2.588720,2.161252,2.855115,0.955771,13.469366,5.658340,3.883874,4.763610,1.081369,18.401241,6.521842,6.597383,10.194510,5.511967,13.342429,7.979586,5.863230,5.215178,1.128960
1594579775.336661,74.000000,0.000000,4421.538574,4428.717773,4289.743652,4254.358887,4362.563965,450.000000,4.000000,,,,0.000000,4.000000,4.000000,4.000000,4.000000,4.000000,100.000000,37.000000,0.000000,0.464039,0.468750,0.515625,-0.546875,1.031266,0.125002,-0.062501,-76.563667,-11.587419,11.566516,,,,,,,,,,,,,,,,,,,,,,,,,
1594579775.344557,75.000000,0.000000,4481.538574,4465.641113,4338.974121,4323.077148,4402.563965,1023.000000,4.000000,,,,0.000000,4.000000,4.000000,4.000000,4.000000,4.000000,100.000000,,,,,,,,,,,,,,,,,,,,,,,,,,,,,,,,,,,,,
1594579775.352253,76.000000,0.000000,4458.461426,4441.025879,4326.666504,4307.179688,4384.615234,450.000000,4.000000,,,,0.000000,4.000000,4.000000,4.000000,4.000000,4.000000,100.000000,38.000000,0.000000,0.464039,0.468750,0.515625,-0.546875,1.000015,0.125002,-0.062501,-76.563667,-14.256860,10.409864,,,,,,,,,,,,,,,,,,,,,,,,,
1594579775.359948,77.000000,0.000000,4415.384766,4400.000000,4296.922852,4251.794922,4350.769043,450.000000,4.000000,,,,0.000000,4.000000,4.000000,4.000000,4.000000,4.000000,100.000000,,,,,,,,,,,,,,,,,,,,,,,,,,,,,,,,,,,,,
1594579775.367644,78.000000,0.000000,4395.897461,4381.538574,4283.589844,4234.871582,4330.256348,450.000000,4.000000,,,,0.000000,4.000000,4.000000,4.000000,4.000000,4.000000,100.000000,39.000000,0.000000,0.464039,0.468750,0.515625,-0.546875,1.031266,0.125002,-0.062501,-76.563667,-12.831174,9.368877,,,,,,,,,,,,,,,,,,,,,,,,,
1594579775.375340,79.000000,0.000000,4364.102539,4365.128418,4256.922852,4234.358887,4298.974121,1023.000000,4.000000,,,,0.000000,4.000000,4.000000,4.000000,4.000000,4.000000,100.000000,,,,,,,,,,,,,,,,,,,,,,,,,,,,,,,,,,,,,
1594579775.383036,80.000000,0.000000,4344.615234,4356.922852,4233.846191,4217.436035,4281.538574,450.000000,4.000000,,,,0.000000,4.000000,4.000000,4.000000,4.000000,4.000000,100.000000,40.000000,0.000000,0.464039,0.468750,0.515625,-0.546875,1.031266,0.125002,-0.062501,-76.563667,-11.548057,8.431990,,,,,,,,,,,,,,,,,,,,,,,,,
1594579775.390932,81.000000,0.000000,4359.487305,4363.077148,4232.820313,4196.922852,4290.256348,450.000000,4.000000,,,,0.000000,4.000000,4.000000,4.000000,4.000000,4.000000,100.000000,,,,,,,,,,,,,,,,,,,,,,,,,,,,,,,,,,,,,
1594579775.398628,82.000000,0.000000,4353.846191,4361.025879,4224.102539,4183.589844,4283.589844,450.000000,4.000000,,,,0.000000,4.000000,4.000000,4.000000,4.000000,4.000000,100.000000,41.000000,0.000000,0.464039,0.468750,0.515625,-0.546875,1.000015,0.125002,-0.062501,-76.563667,-10.393250,11.416974,,,,,,,,,,,,,,,,,,,,,,,,,
1594579775.406524,83.000000,0.000000,4340.000000,4361.025879,4217.436035,4188.717773,4277.948730,1023.000000,4.000000,,,,0.000000,4.000000,4.000000,4.000000,4.000000,4.000000,100.000000,,,,,,,,,,,,,,,,,,,,,,,,,,,,,,,,,,,,,
1594579775.414220,84.000000,0.000000,4322.051270,4348.717773,4189.230957,4178.974121,4257.436035,450.000000,4.000000,,,,0.000000,4.000000,4.000000,4.000000,4.000000,4.000000,100.000000,42.000000,0.000000,0.464039,0.468750,0.515625,-0.546875,1.031266,0.125002,-0.093751,-76.563667,-9.353926,10.275277,,,,,,,,,,,,,,,,,,,,,,,,,
1594579775.422116,85.000000,0.000000,4300.512695,4328.205078,4154.871582,4149.743652,4228.717773,450.000000,4.000000,,,,0.000000,4.000000,4.000000,4.000000,4.000000,4.000000,100.000000,,,,,,,,,,,,,,,,,,,,,,,,,,,,,,,,,,,,,
1594579775.429812,86.000000,0.000000,4303.589844,4330.256348,4166.666504,4150.769043,4239.487305,450.000000,4.000000,,,,0.000000,4.000000,4.000000,4.000000,4.000000,4.000000,100.000000,43.000000,0.000000,0.464039,0.468750,0.515625,-0.546875,1.031266,0.125002,-0.093751,-76.563667,-8.418533,13.075933,,,,,,,,,,,,,,,,,,,,,,,,,
1594579775.437708,87.000000,0.000000,4308.717773,4336.410156,4189.743652,4177.436035,4257.948730,1023.000000,4.000000,,,,0.000000,4.000000,4.000000,4.000000,4.000000,4.000000,100.000000,,,,,,,,,,,,,,,,,,,,,,,,,,,,,,,,,,,,,
1594579775.445603,88.000000,0.000000,4302.563965,4334.358887,4190.256348,4169.230957,4256.410156,450.000000,4.000000,,,,0.000000,4.000000,4.000000,4.000000,4.000000,4.000000,100.000000,44.000000,0.000000,0.464039,0.468750,0.515625,-0.546875,1.031266,0.125002,-0.062501,-76.563667,-7.576680,11.768339,,,,,,,,,,,,,,,,,,,,,,,,,
1594579775.453499,89.000000,0.000000,4301.538574,4330.256348,4186.153809,4137.436035,4251.794922,450.000000,4.000000,,,,0.000000,4.000000,4.000000,4.000000,4.000000,4.000000,100.000000,,,,,,,,,,,,,17.696646,12.063675,6.935680,4.701876,1.314880,4.727831,2.830599,2.584039,2.681369,1.047383,12.560954,7.841906,5.023598,4.577487,1.210546,15.546915,9.150106,8.469258,9.871791,5.692253,12.726861,10.972189,7.627948,5.103923,1.261651
1594579775.461195,90.000000,0.000000,4293.333496,4326.153809,4180.000000,4140.000000,4238.461426,450.000000,4.000000,,,,0.000000,4.000000,4.000000,4.000000,4.000000,4.000000,100.000000,45.000000,0.000000,0.479308,0.453125,0.515625,-0.546875,1.031266,0.125002,-0.062501,-76.563667,-6.819012,14.419689,,,,,,,,,,,,,,,,,,,,,,,,,
1594579775.469091,91.000000,0.000000,4273.333496,4317.948730,4168.717773,4175.897461,4211.282227,1023.000000,4.000000,,,,0.000000,4.000000,4.000000,4.000000,4.000000,4.000000,100.000000,,,,,,,,,,,,,,,,,,,,,,,,,,,,,,,,,,,,,
1594579775.476786,92.000000,0.000000,4271.794922,4311.794922,4169.230957,4160.000000,4208.717773,450.000000,4.000000,,,,0.000000,4.000000,4.000000,4.000000,4.000000,4.000000,100.000000,46.000000,0.000000,0.479308,0.453125,0.515625,-0.546875,1.031266,0.125002,-0.093751,-76.563667,-9.965294,12.977720,,,,,,,,,,,,,,,,,,,,,,,,,
1594579775.484482,93.000000,0.000000,4288.205078,4317.948730,4176.922852,4106.666504,4227.179688,450.000000,4.000000,,,,0.000000,4.000000,4.000000,4.000000,4.000000,4.000000,100.000000,,,,,,,,,,,,,,,,,,,,,,,,,,,,,,,,,,,,,
1594579775.492178,94.000000,0.000000,4282.563965,4313.846191,4166.153809,4120.000000,4214.871582,450.000000,4.000000,,,,0.000000,4.000000,4.000000,4.000000,4.000000,4.000000,100.000000,47.000000,0.000000,0.479308,0.453125,0.515625,-0.546875,1.031266,0.125002,-0.062501,-76.563667,-12.796948,11.679948,,,,,,,,,,,,,,,,,,,,,,,,,
1594579775.500074,95.000000,0.000000,4265.128418,4303.589844,4151.794922,4172.820313,4188.717773,1023.000000,4.000000,,,,0.000000,4.000000,4.000000,4.000000,4.000000,4.000000,100.000000,,,,,,,,,,,,,,,,,,,,,,,,,,,,,,,,,,,,,
1594579775.507770,96.000000,0.000000,4259.487305,4307.692383,4147.179688,4166.153809,4181.538574,450.000000,4.000000,,,,0.000000,4.000000,4.000000,4.000000,4.000000,4.000000,100.000000,48.000000,0.000000,0.479308,0.453125,0.515625,-0.546875,1.031266,0.156252,-0.093751,-76.563667,-15.345437,10.511953,,,,,,,,,,,,,,,,,,,,,,,,,
1594579775.515665,97.000000,0.000000,4260.000000,4311.794922,4141.538574,4098.461426,4186.153809,450.000000,4.000000,,,,0.000000,4.000000,4.000000,4.000000,4.000000,4.000000,100.000000,,,,,,,,,,,,,,,,,,,,,,,,,,,,,,,,,,,,,
1594579775.523361,98.000000,0.000000,4273.333496,4320.000000,4155.384766,4095.897461,4203.077148,450.000000,4.000000,,,,0.000000,4.000000,4.000000,4.000000,4.000000,4.000000,100.000000,49.000000,0.000000,0.479308,0.453125,0.515625,-0.546875,1.031266,0.156252,-0.062501,-76.563667,-13.810893,9.460758,,,,,,,,,,,,,,,,,,,,,,,,,
1594579775.531256,99.000000,0.000000,4278.974121,4326.153809,4172.820313,4161.538574,4217.436035,1023.000000,4.000000,,,,0.000000,4.000000,4.000000,4.000000,4.000000,4.000000,100.000000,,,,,,,,,,,,,,,,,,,,,,,,,,,,,,,,,,,,,
1594579775.538953,100.000000,0.000000,4241.025879,4305.641113,4138.461426,4154.871582,4190.769043,450.000000,4.000000,,,,0.000000,4.000000,4.000000,4.000000,4.000000,4.000000,100.000000,50.000000,0.000000,0.479308,0.453125,0.515625,-0.546875,1.062516,0.156252,-0.062501,-76.563667,-12.429804,8.514682,,,,,,,,,,,,,,,,,,,,,,,,,
1594579775.546848,101.000000,0.000000,4185.128418,4266.666504,4065.128174,4071.794922,4138.974121,450.000000,4.000000,,,,0.000000,4.000000,4.000000,4.000000,4.000000,4.000000,100.000000,,,,,,,,,,,,,,,,,,,,,,,,,,,,,,,,,,,,,
1594579775.554744,102.000000,0.000000,4178.974121,4260.512695,4040.512939,4040.000000,4128.205078,450.000000,4.000000,,,,0.000000,4.000000,4.000000,4.000000,4.000000,4.000000,100.000000,51.000000,0.000000,0.479308,0.453125,0.515625,-0.546875,1.062516,0.187503,-0.062501,-76.563667,-11.186823,7.663214,,,,,,,,,,,,,,,,,,,,,,,,,
1594579775.562440,103.000000,0.000000,4283.077148,4328.205078,4120.512695,4132.820313,4224.615234,1023.000000,4.000000,,,,0.000000,4.000000,4.000000,4.000000,4.000000,4.000000,100.000000,,,,,,,,,,,,,,,,,,,,,,,,,,,,,,,,,,,,,
1594579775.570136,104.000000,0.000000,4460.000000,4434.871582,4242.051270,4257.436035,4394.871582,450.000000,4.000000,,,,0.000000,4.000000,4.000000,4.000000,4.000000,4.000000,100.000000,52.000000,0.000000,0.479308,0.453125,0.515625,-0.546875,1.031266,0.187503,-0.062501,-76.563667,-10.068141,6.896893,,,,,,,,,,,,,,,,,,,,,,,,,
1594579775.577831,105.000000,0.000000,4582.563965,4490.256348,4305.128418,4314.871582,4508.205078,450.000000,4.000000,,,,0.000000,4.000000,4.000000,4.000000,4.000000,4.000000,100.000000,,,,,,,,,,,,,22.167856,14.419998,8.745292,4.300619,1.496797,4.576057,3.233131,3.224059,2.408752,1.157310,12.505515,9.671774,6.636395,4.278092,1.410450,12.917425,11.272233,10.682914,9.265072,5.661060,17.227230,13.690364,9.531487,4.847727,1.473668
1594579775.585527,106.000000,0.000000,4649.743652,4498.461426,4344.615234,4362.563965,4566.666504,450.000000,4.000000,,,,0.000000,4.000000,4.000000,4.000000,4.000000,4.000000,100.000000,53.000000,0.000000,0.461930,0.453125,0.531250,-0.546875,1.031266,0.218753,-0.062501,-76.563667,-9.061327,6.207203,,,,,,,,,,,,,,,,,,,,,,,,,
1594579775.593223,107.000000,0.000000,4693.333496,4492.307617,4366.153809,4401.538574,4613.333496,1023.000000,4.000000,,,,0.000000,4.000000,4.000000,4.000000,4.000000,4.000000,100.000000,,,,,,,,,,,,,,,,,,,,,,,,,,,,,,,,,,,,,
1594579775.600919,108.000000,0.000000,4662.563965,4451.282227,4308.717773,4331.282227,4588.205078,450.000000,4.000000,,,,0.000000,4.000000,4.000000,4.000000,4.000000,4.000000,100.000000,54.000000,0.000000,0.461930,0.453125,0.531250,-0.546875,1.031266,0.187503,-0.062501,-76.563667,-8.155194,9.414666,,,,,,,,,,,,,,,,,,,,,,,,,
1594579775.608815,109.000000,0.000000,4646.153809,4445.128418,4282.051270,4269.743652,4566.153809,450.000000,4.000000,,,,0.000000,4.000000,4.000000,4.000000,4.000000,4.000000,100.000000,,,,,,,,,,,,,,,,,,,,,,,,,,,,,,,,,,,,,
1594579775.616511,110.000000,0.000000,4685.128418,4461.538574,4318.461426,4315.384766,4598.461426,450.000000,4.000000,,,,0.000000,4.000000,4.000000,4.000000,4.000000,4.000000,100.000000,55.000000,0.000000,0.479817,0.453125,0.531250,-0.531250,1.031266,0.156252,-0.062501,-76.563667,-11.167858,8.473200,,,,,,,,,,,,,,,,,,,,,,,,,
1594579775.624407,111.000000,0.000000,4688.205078,4436.922852,4317.948730,4339.487305,4603.589844,1023.000000,4.000000,,,,0.000000,4.000000,4.000000,4.000000,4.000000,4.000000,100.000000,,,,,,,,,,,,,,,,,,,,,,,,,,,,,,,,,,,,,
1594579775.632103,112.000000,0.000000,4654.871582,4400.000000,4277.948730,4276.922852,4580.000000,450.000000,4.000000,,,,0.000000,4.000000,4.000000,4.000000,4.000000,4.000000,100.000000,56.000000,0.000000,0.494106,0.437500,0.531250,-0.531250,1.000015,0.187503,-0.062501,-76.563667,-10.051072,7.625880,,,,,,,,,,,,,,,,,,,,,,,,,
1594579775.639998,113.000000,0.000000,4613.846191,4367.179688,4234.871582,4212.820313,4548.205078,450.000000,4.000000,,,,0.000000,4.000000,4.000000,4.000000,4.000000,4.000000,100.000000,,,,,,,,,,,,,,,,,,,,,,,,,,,,,,,,,,,,,
1594579775.647694,114.000000,0.000000,4579.487305,4338.461426,4202.051270,4198.974121,4508.717773,450.000000,4.000000,,,,0.000000,4.000000,4.000000,4.000000,4.000000,4.000000,100.000000,57.000000,0.000000,0.494106,0.437500,0.531250,-0.531250,1.000015,0.156252,-0.062501,-76.563667,-9.045965,6.863292,,,,,,,,,,,,,,,,,,,,,,,,,
1594579775.655590,115.000000,0.000000,4566.666504,4326.153809,4180.000000,4188.205078,4486.666504,1023.000000,4.000000,,,,0.000000,4.000000,4.000000,4.000000,4.000000,4.000000,100.000000,,,,,,,,,,,,,,,,,,,,,,,,,,,,,,,,,,,,,
1594579775.663486,116.000000,0.000000,4555.384766,4324.102539,4167.179688,4165.641113,4483.589844,450.000000,4.000000,,,,0.000000,4.000000,4.000000,4.000000,4.000000,4.000000,100.000000,58.000000,0.000000,0.476755,0.437500,0.546875,-0.531250,1.000015,0.125002,-0.062501,-76.563667,-11.969552,6.176962,,,,,,,,,,,,,,,,,,,,,,,,,
1594579775.671381,117.000000,0.000000,4525.128418,4317.948730,4153.846191,4152.820313,4468.717773,450.000000,4.000000,,,,0.000000,4.000000,4.000000,4.000000,4.000000,4.000000,100.000000,,,,,,,,,,,,,,,,,,,,,,,,,,,,,,,,,,,,,
1594579775.679077,118.000000,0.000000,4514.358887,4315.897461,4151.794922,4157.948730,4464.102539,450.000000,4.000000,,,,0.000000,4.000000,4.000000,4.000000,4.000000,4.000000,100.000000,59.000000,0.000000,0.476755,0.437500,0.546875,-0.531250,1.000015,0.125002,-0.062501,-76.563667,-10.772596,5.559266,,,,,,,,,,,,,,,,,,,,,,,,,
1594579775.686973,119.000000,0.000000,4532.820313,4315.897461,4159.487305,4159.487305,4482.563965,1023.000000,4.000000,,,,0.000000,4.000000,4.000000,4.000000,4.000000,4.000000,100.000000,,,,,,,,,,,,,,,,,,,,,,,,,,,,,,,,,,,,,
1594579775.694669,120.000000,0.000000,4526.666504,4313.846191,4151.282227,4126.153809,4477.948730,450.000000,4.000000,,,,0.000000,4.000000,4.000000,4.000000,4.000000,4.000000,100.000000,60.000000,0.000000,0.476755,0.437500,0.546875,-0.531250,1.000015,0.125002,-0.062501,-76.563667,-9.695337,5.003340,,,,,,,,,,,,,,,,,,,,,,,,,
1594579775.702565,121.000000,0.000000,4503.589844,4313.846191,4139.487305,4121.538574,4467.179688,450.000000,4.000000,,,,0.000000,4.000000,4.000000,4.000000,4.000000,4.000000,100.000000,,,,,,,,,,,,,36.012791,16.043474,10.467967,4.070536,1.710989,6.145195,3.677167,4.145442,2.187527,1.264872,15.096227,10.588365,8.617272,4.044175,1.640582,12.417705,12.267462,12.703124,8.583940,5.503123,30.462856,15.321502,11.274966,4.595227,1.710117
1594579775.710460,122.000000,0.000000,4481.025879,4299.487305,4127.179688,4148.205078,4460.512695,450.000000,4.000000,,,,0.000000,4.000000,4.000000,4.000000,4.000000,4.000000,100.000000,61.000000,0.000000,0.476755,0.437500,0.546875,-0.531250,1.000015,0.125002,-0.062501,-76.563667,-8.725803,4.503006,,,,,,,,,,,,,,,,,,,,,,,,,
1594579775.718356,123.000000,0.000000,4470.769043,4297.436035,4119.487305,4120.512695,4447.692383,1023.000000,4.000000,,,,0.000000,4.000000,4.000000,4.000000,4.000000,4.000000,100.000000,,,,,,,,,,,,,,,,,,,,,,,,,,,,,,,,,,,,,
1594579775.726052,124.000000,0.000000,4473.333496,4307.692383,4117.436035,4089.230713,4442.051270,450.000000,4.000000,,,,0.000000,4.000000,4.000000,4.000000,4.000000,4.000000,100.000000,62.000000,0.000000,0.476755,0.437500,0.546875,-0.531250,1.000015,0.093751,-0.062501,-76.563667,-7.853223,4.052705,,,,,,,,,,,,,,,,,,,,,,,,,
1594579775.733947,125.000000,0.000000,4471.282227,4303.589844,4114.871582,4131.282227,4438.461426,450.000000,4.000000,,,,0.000000,4.000000,4.000000,4.000000,4.000000,4.000000,100.000000,,,,,,,,,,,,,,,,,,,,,,,,,,,,,,,,,,,,,
1594579775.741643,126.000000,0.000000,4469.743652,4305.641113,4114.358887,4141.538574,4432.307617,450.000000,4.000000,,,,0.000000,4.000000,4.000000,4.000000,4.000000,4.000000,100.000000,63.000000,0.000000,0.476755,0.437500,0.546875,-0.531250,1.000015,0.125002,-0.031250,-76.563667,-7.067901,3.647435,,,,,,,,,,,,,,,,,,,,,,,,,
1594579775.749539,127.000000,0.000000,4461.025879,4311.794922,4104.102539,4087.179443,4421.538574,241.000000,4.000000,,,,0.000000,4.000000,4.000000,4.000000,4.000000,4.000000,100.000000,,,,,,,,,,,,,,,,,,,,,,,,,,,,,,,,,,,,,
1594579775.757435,0.000000,0.000000,4460.000000,4309.743652,4110.769043,4112.307617,4426.153809,450.000000,4.000000,,,,0.000000,4.000000,4.000000,4.000000,4.000000,4.000000,100.000000,0.000000,0.000000,0.476755,0.437500,0.546875,-0.531250,1.000015,0.125002,-0.062501,-76.563667,-10.189294,3.282691,,,,,,,,,,,,,,,,,,,,,,,,,
1594579775.765131,1.000000,0.000000,4472.820313,4311.794922,4133.846191,4154.358887,4437.436035,450.000000,4.000000,,,,0.000000,4.000000,4.000000,4.000000,4.000000,4.000000,100.000000,,,,,,,,,,,,,,,,,,,,,,,,,,,,,,,,,,,,,
1594579775.772826,2.000000,0.000000,4483.077148,4324.102539,4149.230957,4121.538574,4443.589844,1023.000000,4.000000,,,,0.000000,4.000000,4.000000,4.000000,4.000000,4.000000,100.000000,1.000000,0.000000,0.494106,0.437500,0.531250,-0.531250,1.031266,0.156252,-0.062501,-76.563667,-9.170364,2.954422,,,,,,,,,,,,,,,,,,,,,,,,,
1594579775.780522,3.000000,0.000000,4492.820313,4340.512695,4158.461426,4137.948730,4456.410156,450.000000,4.000000,,,,0.000000,4.000000,4.000000,4.000000,4.000000,4.000000,100.000000,,,,,,,,,,,,,,,,,,,,,,,,,,,,,,,,,,,,,
1594579775.788218,4.000000,0.000000,4470.769043,4326.153809,4134.871582,4162.051270,4431.794922,1023.000000,4.000000,,,,0.000000,4.000000,4.000000,4.000000,4.000000,4.000000,100.000000,2.000000,0.000000,0.494106,0.437500,0.531250,-0.531250,1.031266,0.156252,-0.062501,-76.563667,-8.253328,6.487163,,,,,,,,,,,,,,,,,,,,,,,,,
1594579775.795914,5.000000,0.000000,4436.410156,4307.692383,4110.769043,4106.666504,4393.846191,450.000000,4.000000,,,,0.000000,4.000000,4.000000,4.000000,4.000000,4.000000,100.000000,,,,,,,,,,,,,,,,,,,,,,,,,,,,,,,,,,,,,
1594579775.803610,6.000000,0.000000,4445.641113,4330.256348,4129.743652,4098.974121,4411.794922,1023.000000,4.000000,,,,0.000000,4.000000,4.000000,4.000000,4.000000,4.000000,100.000000,3.000000,0.000000,0.494106,0.437500,0.531250,-0.531250,1.031266,0.156252,-0.062501,-76.563667,-7.427995,5.838447,,,,,,,,,,,,,,,,,,,,,,,,,
1594579775.811506,7.000000,0.000000,4486.666504,4361.025879,4168.717773,4168.205078,4452.307617,450.000000,4.000000,,,,0.000000,4.000000,4.000000,4.000000,4.000000,4.000000,100.000000,,,,,,,,,,,,,,,,,,,,,,,,,,,,,,,,,,,,,
1594579775.819202,8.000000,0.000000,4506.153809,4363.077148,4189.743652,4205.128418,4464.615234,450.000000,4.000000,,,,0.000000,4.000000,4.000000,4.000000,4.000000,4.000000,100.000000,4.000000,0.000000,0.494106,0.437500,0.531250,-0.531250,1.031266,0.187503,-0.062501,-76.563667,-6.685196,5.254602,,,,,,,,,,,,,,,,,,,,,,,,,
1594579775.827097,9.000000,0.000000,4454.358887,4330.256348,4156.410156,4171.282227,4422.563965,1023.000000,4.000000,,,,0.000000,4.000000,4.000000,4.000000,4.000000,4.000000,100.000000,,,,,,,,,,,,,66.339508,17.428808,12.218191,4.457273,1.922451,10.678585,4.223384,5.375739,2.267210,1.341046,23.206835,10.875315,10.767076,4.210180,1.840356,17.412706,12.435406,14.077729,8.102861,5.375711,57.948811,16.233326,12.785803,4.719203,1.895401
1594579775.834794,10.000000,0.000000,4389.743652,4307.692383,4103.077148,4094.358887,4363.589844,450.000000,4.000000,,,,0.000000,4.000000,4.000000,4.000000,4.000000,4.000000,100.000000,5.000000,0.000000,0.494106,0.437500,0.531250,-0.531250,1.031266,0.156252,-0.062501,-76.563667,-6.016676,4.729142,,,,,,,,,,,,,,,,,,,,,,,,,
1594579775.842689,11.000000,0.000000,4404.615234,4324.102539,4112.820313,4063.589844,4364.102539,1023.000000,4.000000,,,,0.000000,4.000000,4.000000,4.000000,4.000000,4.000000,100.000000,,,,,,,,,,,,,,,,,,,,,,,,,,,,,,,,,,,,,
1594579775.850385,12.000000,0.000000,4444.615234,4336.410156,4154.358887,4130.256348,4398.461426,450.000000,4.000000,,,,0.000000,4.000000,4.000000,4.000000,4.000000,4.000000,100.000000,6.000000,0.000000,0.494106,0.437500,0.531250,-0.531250,1.031266,0.156252,-0.062501,-76.563667,-5.415009,8.084412,,,,,,,,,,,,,,,,,,,,,,,,,
1594579775.858281,13.000000,0.000000,4427.179688,4320.000000,4139.487305,4183.077148,4388.205078,450.000000,4.000000,,,,0.000000,4.000000,4.000000,4.000000,4.000000,4.000000,100.000000,,,,,,,,,,,,,,,,,,,,,,,,,,,,,,,,,,,,,
1594579775.866177,14.000000,0.000000,4403.589844,4307.692383,4109.230957,4149.743652,4361.025879,450.000000,4.000000,,,,0.000000,4.000000,4.000000,4.000000,4.000000,4.000000,100.000000,7.000000,0.000000,0.494106,0.437500,0.531250,-0.531250,1.031266,0.156252,-0.062501,-76.563667,-4.873508,7.275970,,,,,,,,,,,,,,,,,,,,,,,,,
1594579775.874073,15.000000,0.000000,4404.102539,4311.794922,4110.769043,4108.205078,4354.358887,1023.000000,4.000000,,,,0.000000,4.000000,4.000000,4.000000,4.000000,4.000000,100.000000,,,,,,,,,,,,,,,,,,,,,,,,,,,,,,,,,,,,,
1594579775.881769,16.000000,0.000000,4391.794922,4309.743652,4104.102539,4098.461426,4341.025879,0.000000,4.000000,,,,0.000000,4.000000,4.000000,4.000000,4.000000,4.000000,100.000000,8.000000,0.000000,0.494106,0.437500,0.531250,-0.531250,1.031266,0.187503,-0.062501,-76.563667,-8.214340,6.548373,,,,,,,,,,,,,,,,,,,,,,,,,
1594579775.889664,17.000000,0.000000,4389.230957,4315.897461,4103.589844,4111.282227,4334.358887,0.000000,4.000000,,,,0.000000,4.000000,4.000000,4.000000,4.000000,4.000000,100.000000,,,,,,,,,,,,,,,,,,,,,,,,,,,,,,,,,,,,,
1594579775.897360,18.000000,0.000000,4374.358887,4307.692383,4097.436035,4113.333496,4314.871582,0.000000,4.000000,,,,0.000000,4.000000,4.000000,4.000000,4.000000,4.000000,100.000000,9.000000,0.000000,0.479817,0.453125,0.531250,-0.531250,1.031266,0.187503,-0.062501,-76.563667,-11.221089,5.893536,,,,,,,,,,,,,,,,,,,,,,,,,
1594579775.905256,19.000000,0.000000,4345.128418,4295.384766,4076.923096,4086.153809,4278.974121,0.000000,4.000000,,,,0.000000,4.000000,4.000000,4.000000,4.000000,4.000000,100.000000,,,,,,,,,,,,,,,,,,,,,,,,,,,,,,,,,,,,,
1594579775.912952,20.000000,0.000000,4359.487305,4311.794922,4092.307617,4086.666748,4278.974121,0.000000,4.000000,,,,0.000000,4.000000,4.000000,4.000000,4.000000,4.000000,100.000000,10.000000,0.000000,0.479817,0.453125,0.531250,-0.531250,1.031266,0.187503,-0.062501,-76.563667,-10.098981,5.304182,,,,,,,,,,,,,,,,,,,,,,,,,
1594579775.920847,21.000000,0.000000,4372.820313,4315.897461,4117.948730,4110.769043,4287.179688,0.000000,4.000000,,,,0.000000,4.000000,4.000000,4.000000,4.000000,4.000000,100.000000,,,,,,,,,,,,,,,,,,,,,,,,,,,,,,,,,,,,,
1594579775.928544,22.000000,0.000000,4345.128418,4299.487305,4101.538574,4101.538574,4260.512695,0.000000,4.000000,,,,0.000000,4.000000,4.000000,4.000000,4.000000,4.000000,100.000000,11.000000,0.000000,0.479817,0.453125,0.531250,-0.531250,1.031266,0.156252,-0.062501,-76.563667,-9.089083,4.773764,,,,,,,,,,,,,,,,,,,,,,,,,
1594579775.936439,23.000000,0.000000,4317.948730,4297.436035,4075.384521,4075.897461,4223.589844,0.000000,4.000000,,,,0.000000,4.000000,4.000000,4.000000,4.000000,4.000000,100.000000,,,,,,,,,,,,,,,,,,,,,,,,,,,,,,,,,,,,,
1594579775.944335,24.000000,0.000000,4329.230957,4317.948730,4095.384521,4077.435791,4229.743652,0.000000,4.000000,,,,0.000000,4.000000,4.000000,4.000000,4.000000,4.000000,100.000000,12.000000,0.000000,0.479817,0.453125,0.531250,-0.531250,1.031266,0.187503,-0.062501,-76.563667,-8.180175,4.296388,,,,,,,,,,,,,,,,,,,,,,,,,
1594579775.952231,25.000000,0.000000,4345.128418,4328.205078,4122.051270,4096.410156,4250.769043,0.000000,4.000000,,,,0.000000,4.000000,4.000000,4.000000,4.000000,4.000000,100.000000,,,,,,,,,,,,,115.163895,20.506180,14.446454,5.907607,2.096324,19.812174,5.385436,6.896701,2.891617,1.365190,39.178955,11.919492,12.946948,5.147724,1.963134,30.843737,13.283426,14.777662,8.088282,5.439832,100.991035,18.243053,14.330708,5.677219,1.971921
1594579775.960127,26.000000,0.000000,4326.666504,4322.051270,4107.692383,4100.512695,4231.794922,0.000000,4.000000,,,,0.000000,4.000000,4.000000,4.000000,4.000000,4.000000,100.000000,13.000000,0.000000,0.479817,0.453125,0.531250,-0.531250,1.031266,0.156252,-0.031250,-76.563667,-7.362157,3.866749,,,,,,,,,,,,,,,,,,,,,,,,,
1594579775.968023,27.000000,0.000000,4291.794922,4315.897461,4087.179443,4088.718018,4199.487305,0.000000,4.000000,,,,0.000000,4.000000,4.000000,4.000000,4.000000,4.000000,100.000000,,,,,,,,,,,,,,,,,,,,,,,,,,,,,,,,,,,,,
1594579775.975918,28.000000,0.000000,4292.820313,4326.153809,4116.922852,4107.179688,4207.179688,0.000000,4.000000,,,,0.000000,4.000000,4.000000,4.000000,4.000000,4.000000,100.000000,14.000000,0.000000,0.494106,0.437500,0.531250,-0.531250,1.031266,0.156252,-0.062501,-76.563667,-6.625941,7.308258,,,,,,,,,,,,,,,,,,,,,,,,,
1594579775.983614,29.000000,0.000000,4331.282227,4350.769043,4168.717773,4149.743652,4241.025879,0.000000,4.000000,,,,0.000000,4.000000,4.000000,4.000000,4.000000,4.000000,100.000000,,,,,,,,,,,,,,,,,,,,,,,,,,,,,,,,,,,,,
1594579775.991310,30.000000,0.000000,4322.563965,4346.666504,4164.615234,4149.743652,4232.820313,0.000000,4.000000,,,,0.000000,4.000000,4.000000,4.000000,4.000000,4.000000,100.000000,15.000000,0.000000,0.494106,0.437500,0.531250,-0.531250,1.031266,0.156252,-0.062501,-76.563667,-5.963347,10.405615,,,,,,,,,,,,,,,,,,,,,,,,,
1594579775.999006,31.000000,0.000000,4286.666504,4328.205078,4136.410156,4125.128418,4207.179688,0.000000,4.000000,,,,0.000000,4.000000,4.000000,4.000000,4.000000,4.000000,100.000000,,,,,,,,,,,,,,,,,,,,,,,,,,,,,,,,,,,,,
1594579776.006702,32.000000,0.000000,4250.769043,4315.897461,4108.205078,4089.230713,4168.205078,0.000000,4.000000,,,,0.000000,4.000000,4.000000,4.000000,4.000000,4.000000,100.000000,16.000000,0.000000,0.494106,0.437500,0.531250,-0.531250,1.031266,0.156252,-0.031250,-76.563667,-9.195196,9.365053,,,,,,,,,,,,,,,,,,,,,,,,,
1594579776.014598,33.000000,0.000000,4230.769043,4317.948730,4096.410156,4071.794922,4144.102539,0.000000,4.000000,,,,0.000000,4.000000,4.000000,4.000000,4.000000,4.000000,100.000000,,,,,,,,,,,,,,,,,,,,,,,,,,,,,,,,,,,,,
1594579776.022494,34.000000,0.000000,4274.358887,4344.615234,4136.922852,4104.102539,4193.846191,0.000000,4.000000,,,,0.000000,4.000000,4.000000,4.000000,4.000000,4.000000,100.000000,17.000000,0.000000,0.476755,0.437500,0.546875,-0.531250,1.031266,0.156252,-0.031250,-76.563667,-12.103860,8.428548,,,,,,,,,,,,,,,,,,,,,,,,,
1594579776.030389,35.000000,0.000000,4280.000000,4336.410156,4147.692383,4101.538574,4203.077148,0.000000,4.000000,,,,0.000000,4.000000,4.000000,4.000000,4.000000,4.000000,100.000000,,,,,,,,,,,,,,,,,,,,,,,,,,,,,,,,,,,,,
1594579776.038086,36.000000,0.000000,4205.641113,4297.436035,4098.461426,4063.589844,4131.794922,0.000000,4.000000,,,,0.000000,4.000000,4.000000,4.000000,4.000000,4.000000,100.000000,18.000000,0.000000,0.476755,0.437500,0.546875,-0.531250,1.031266,0.156252,-0.031250,-76.563667,-14.721657,7.585693,,,,,,,,,,,,,,,,,,,,,,,,,
1594579776.045981,37.000000,0.000000,4180.512695,4293.333496,4083.589844,4069.230713,4111.282227,0.000000,4.000000,,,,0.000000,4.000000,4.000000,4.000000,4.000000,4.000000,100.000000,,,,,,,,,,,,,,,,,,,,,,,,,,,,,,,,,,,,,
1594579776.053877,38.000000,0.000000,4214.871582,4305.641113,4112.307617,4092.820557,4138.461426,0.000000,4.000000,,,,0.000000,4.000000,4.000000,4.000000,4.000000,4.000000,100.000000,19.000000,0.000000,0.476755,0.437500,0.546875,-0.531250,1.031266,0.156252,-0.031250,-76.563667,-17.077675,6.827124,,,,,,,,,,,,,,,,,,,,,,,,,
1594579776.061773,39.000000,0.000000,4182.563965,4281.025879,4089.743652,4057.948730,4102.563965,0.000000,4.000000,,,,0.000000,4.000000,4.000000,4.000000,4.000000,4.000000,100.000000,,,,,,,,,,,,,,,,,,,,,,,,,,,,,,,,,,,,,
1594579776.069469,40.000000,0.000000,4119.487305,4254.358887,4041.538574,4010.769287,4049.743652,0.000000,4.000000,,,,0.000000,4.000000,4.000000,4.000000,4.000000,4.000000,100.000000,20.000000,0.000000,0.476755,0.437500,0.546875,-0.531250,1.000015,0.156252,-0.031250,-76.563667,-19.198092,6.144412,,,,,,,,,,,,,,,,,,,,,,,,,
1594579776.077364,41.000000,0.000000,4136.410156,4285.128418,4071.281982,4031.281982,4076.410156,0.000000,4.000000,,,,0.000000,4.000000,4.000000,4.000000,4.000000,4.000000,100.000000,,,,,,,,,,,,,183.144638,27.225086,17.373756,8.547695,2.219478,34.722427,7.763834,8.515316,4.119880,1.338074,64.087509,15.120100,14.920720,7.009305,2.003723,54.940945,16.227318,15.018616,8.734310,5.790450,159.064514,23.273968,16.069500,7.703191,1.937835
1594579776.085060,42.000000,0.000000,4165.128418,4309.743652,4118.974121,4080.512939,4113.846191,0.000000,4.000000,,,,0.000000,4.000000,4.000000,4.000000,4.000000,4.000000,100.000000,21.000000,0.000000,0.476755,0.437500,0.546875,-0.531250,1.000015,0.156252,-0.031250,-76.563667,-21.106464,5.529971,,,,,,,,,,,,,,,,,,,,,,,,,
1594579776.092956,43.000000,0.000000,4154.358887,4303.589844,4118.974121,4089.743652,4108.205078,0.000000,4.000000,,,,0.000000,4.000000,4.000000,4.000000,4.000000,4.000000,100.000000,,,,,,,,,,,,,,,,,,,,,,,,,,,,,,,,,,,,,
1594579776.100652,44.000000,0.000000,4175.897461,4313.846191,4139.487305,4092.307617,4118.974121,0.000000,4.000000,,,,0.000000,4.000000,4.000000,4.000000,4.000000,4.000000,100.000000,22.000000,0.000000,0.476755,0.437500,0.546875,-0.531250,1.031266,0.156252,-0.031250,-76.563667,-18.995819,4.976974,,,,,,,,,,,,,,,,,,,,,,,,,
1594579776.108547,45.000000,0.000000,4203.589844,4332.307617,4166.153809,4115.384766,4138.461426,0.000000,4.000000,,,,0.000000,4.000000,4.000000,4.000000,4.000000,4.000000,100.000000,,,,,,,,,,,,,,,,,,,,,,,,,,,,,,,,,,,,,
1594579776.116243,46.000000,0.000000,4179.487305,4322.051270,4142.051270,4104.102539,4118.461426,0.000000,4.000000,,,,0.000000,4.000000,4.000000,4.000000,4.000000,4.000000,100.000000,23.000000,0.000000,0.476755,0.437500,0.546875,-0.531250,1.000015,0.125002,-0.031250,-76.563667,-20.924419,4.479276,,,,,,,,,,,,,,,,,,,,,,,,,
1594579776.124139,47.000000,0.000000,4157.948730,4307.692383,4119.487305,4079.487061,4097.948730,0.000000,4.000000,,,,0.000000,4.000000,4.000000,4.000000,4.000000,4.000000,100.000000,,,,,,,,,,,,,,,,,,,,,,,,,,,,,,,,,,,,,
1594579776.131835,48.000000,0.000000,4164.102539,4311.794922,4125.641113,4051.281982,4105.128418,0.000000,4.000000,,,,0.000000,4.000000,4.000000,4.000000,4.000000,4.000000,100.000000,24.000000,0.000000,0.476755,0.437500,0.546875,-0.531250,1.000015,0.156252,-0.031250,-76.563667,-18.831978,4.031348,,,,,,,,,,,,,,,,,,,,,,,,,
1594579776.139731,49.000000,0.000000,4172.820313,4315.897461,4131.282227,4044.102539,4106.153809,0.000000,4.000000,,,,0.000000,4.000000,4.000000,4.000000,4.000000,4.000000,100.000000,,,,,,,,,,,,,,,,,,,,,,,,,,,,,,,,,,,,,
1594579776.147626,50.000000,0.000000,4185.641113,4322.051270,4140.512695,4098.974121,4105.128418,0.000000,4.000000,,,,0.000000,4.000000,4.000000,4.000000,4.000000,4.000000,100.000000,25.000000,0.000000,0.476755,0.437500,0.546875,-0.531250,1.000015,0.156252,-0.031250,-76.563667,-16.948780,3.628214,,,,,,,,,,,,,,,,,,,,,,,,,
1594579776.155522,51.000000,0.000000,4181.538574,4320.000000,4141.538574,4121.025879,4110.256348,0.000000,4.000000,,,,0.000000,4.000000,4.000000,4.000000,4.000000,4.000000,100.000000,,,,,,,,,,,,,,,,,,,,,,,,,,,,,,,,,,,,,
