Timestamp,EEG.Counter,EEG.Interpolated,EEG.AF3,EEG.T7,EEG.Pz,EEG.T8,EEG.AF4,EEG.RawCq,EEG.Battery,MarkerIndex,MarkerType,MarkerValueInt,EEG.MarkerHardware,CQ.AF3,CQ.T7,CQ.Pz,CQ.T8,CQ.AF4,CQ.Overall,MOT.CounterMems,MOT.InterpolatedMems,MOT.Q0,MOT.Q1,MOT.Q2,MOT.Q3,MOT.AccX,MOT.AccY,MOT.AccZ,MOT.MagX,MOT.MagY,MOT.MagZ
1594579371.108350,21.000000,0.000000,4316.922852,4344.615234,4154.871582,4089.230713,4259.487305,0.000000,4.000000,,,,0.000000,4.000000,4.000000,4.000000,4.000000,4.000000,100.000000,,,,,,,,,,,,
1594579371.116252,22.000000,0.000000,4306.666504,4363.077148,4155.384766,4090.769287,4242.051270,0.000000,4.000000,,,,0.000000,4.000000,4.000000,4.000000,4.000000,4.000000,100.000000,11.000000,0.000000,0.498043,0.500000,0.468750,-0.531250,1.031266,0.000000,-0.093751,-76.563667,-38.281834,8.082626
1594579371.124154,23.000000,0.000000,4300.512695,4367.179688,4168.205078,4131.794922,4232.820313,0.000000,4.000000,,,,0.000000,4.000000,4.000000,4.000000,4.000000,4.000000,100.000000,,,,,,,,,,,,
1594579371.131856,24.000000,0.000000,4319.487305,4365.128418,4188.205078,4180.000000,4250.256348,0.000000,4.000000,,,,0.000000,4.000000,4.000000,4.000000,4.000000,4.000000,100.000000,12.000000,0.000000,0.498043,0.500000,0.468750,-0.531250,1.031266,0.000000,-0.093751,-76.563667,-38.281834,7.274364
1594579371.139758,25.000000,0.000000,4308.717773,4346.666504,4178.974121,4156.922852,4241.538574,0.000000,4.000000,,,,0.000000,4.000000,4.000000,4.000000,4.000000,4.000000,100.000000,,,,,,,,,,,,
1594579371.147460,26.000000,0.000000,4270.256348,4352.820313,4146.666504,4061.025635,4201.538574,0.000000,4.000000,,,,0.000000,4.000000,4.000000,4.000000,4.000000,4.000000,100.000000,13.000000,0.000000,0.498043,0.500000,0.468750,-0.531250,1.031266,0.000000,-0.093751,-76.563667,-38.281834,6.546927
1594579371.155161,27.000000,0.000000,4260.000000,4356.922852,4128.717773,4022.564209,4188.205078,0.000000,4.000000,,,,0.000000,4.000000,4.000000,4.000000,4.000000,4.000000,100.000000,,,,,,,,,,,,
1594579371.162864,28.000000,0.000000,4278.461426,4336.410156,4141.538574,4096.410156,4208.205078,0.000000,4.000000,,,,0.000000,4.000000,4.000000,4.000000,4.000000,4.000000,100.000000,14.000000,0.000000,0.498043,0.500000,0.468750,-0.531250,1.031266,0.000000,-0.093751,-76.563667,-38.281834,5.892235
1594579371.170765,29.000000,0.000000,4291.794922,4354.871582,4161.538574,4149.230957,4228.205078,0.000000,4.000000,,,,0.000000,4.000000,4.000000,4.000000,4.000000,4.000000,100.000000,,,,,,,,,,,,
1594579371.178467,30.000000,0.000000,4269.743652,4352.820313,4144.615234,4094.358887,4215.897461,0.000000,4.000000,,,,0.000000,4.000000,4.000000,4.000000,4.000000,4.000000,100.000000,15.000000,0.000000,0.498043,0.500000,0.468750,-0.531250,1.031266,0.000000,-0.093751,-76.563667,-38.281834,5.303011
1594579371.186169,31.000000,0.000000,4252.307617,4313.846191,4131.794922,4075.384521,4203.077148,0.000000,4.000000,,,,0.000000,4.000000,4.000000,4.000000,4.000000,4.000000,100.000000,,,,,,,,,,,,
1594579371.193871,32.000000,0.000000,4262.051270,4328.205078,4141.538574,4087.179443,4205.641113,0.000000,4.000000,,,,0.000000,4.000000,4.000000,4.000000,4.000000,4.000000,100.000000,16.000000,0.000000,0.498043,0.500000,0.468750,-0.531250,1.031266,0.000000,-0.093751,-76.563667,-38.281834,4.772710
1594579371.201773,33.000000,0.000000,4273.846191,4356.922852,4141.025879,4055.897461,4209.743652,0.000000,4.000000,,,,0.000000,4.000000,4.000000,4.000000,4.000000,4.000000,100.000000,,,,,,,,,,,,
1594579371.209475,34.000000,0.000000,4283.589844,4334.358887,4136.922852,4067.179443,4220.512695,0.000000,4.000000,,,,0.000000,4.000000,4.000000,4.000000,4.000000,4.000000,100.000000,17.000000,0.000000,0.498043,0.500000,0.468750,-0.531250,1.031266,0.000000,-0.093751,-76.563667,-38.281834,4.295439
1594579371.217377,35.000000,0.000000,4267.692383,4299.487305,4125.641113,4089.230713,4207.179688,0.000000,4.000000,,,,0.000000,4.000000,4.000000,4.000000,4.000000,4.000000,100.000000,,,,,,,,,,,,
1594579371.225078,36.000000,0.000000,4269.743652,4324.102539,4137.948730,4083.076904,4209.743652,0.000000,4.000000,,,,0.000000,4.000000,4.000000,4.000000,4.000000,4.000000,100.000000,18.000000,0.000000,0.498043,0.500000,0.468750,-0.531250,1.031266,0.000000,-0.093751,-76.563667,-38.281834,3.865895
1594579371.232780,37.000000,0.000000,4306.153809,4373.333496,4167.179688,4103.589844,4247.179688,0.000000,4.000000,,,,0.000000,4.000000,4.000000,4.000000,4.000000,4.000000,100.000000,,,,,,,,,,,,
1594579371.240482,38.000000,0.000000,4308.717773,4369.230957,4164.615234,4120.000000,4249.743652,0.000000,4.000000,,,,0.000000,4.000000,4.000000,4.000000,4.000000,4.000000,100.000000,19.000000,0.000000,0.498043,0.500000,0.468750,-0.531250,1.031266,0.000000,-0.093751,-76.563667,-38.281834,3.479306
1594579371.248384,39.000000,0.000000,4297.436035,4344.615234,4160.512695,4102.051270,4233.333496,0.000000,4.000000,,,,0.000000,4.000000,4.000000,4.000000,4.000000,4.000000,100.000000,,,,,,,,,,,,
1594579371.256086,40.000000,0.000000,4298.461426,4346.666504,4160.512695,4076.923096,4234.358887,0.000000,4.000000,,,,0.000000,4.000000,4.000000,4.000000,4.000000,4.000000,100.000000,20.000000,0.000000,0.498043,0.500000,0.468750,-0.531250,1.031266,0.000000,-0.062501,-76.563667,-38.281834,6.959558
1594579371.263988,41.000000,0.000000,4303.077148,4373.333496,4164.615234,4084.615479,4242.563965,0.000000,4.000000,,,,0.000000,4.000000,4.000000,4.000000,4.000000,4.000000,100.000000,,,,,,,,,,,,
1594579371.271690,42.000000,0.000000,4309.230957,4387.692383,4176.922852,4116.922852,4245.128418,0.000000,4.000000,,,,0.000000,4.000000,4.000000,4.000000,4.000000,4.000000,100.000000,21.000000,0.000000,0.498043,0.500000,0.468750,-0.531250,1.031266,0.000000,-0.093751,-76.563667,-38.281834,6.263603
1594579371.279592,43.000000,0.000000,4307.179688,4363.077148,4169.230957,4129.230957,4241.025879,0.000000,4.000000,,,,0.000000,4.000000,4.000000,4.000000,4.000000,4.000000,100.000000,,,,,,,,,,,,
1594579371.287493,44.000000,0.000000,4300.512695,4340.512695,4160.512695,4115.384766,4243.077148,0.000000,4.000000,,,,0.000000,4.000000,4.000000,4.000000,4.000000,4.000000,100.000000,22.000000,0.000000,0.498043,0.500000,0.468750,-0.531250,1.031266,0.000000,-0.062501,-76.563667,-38.281834,9.465425
1594579371.295295,45.000000,0.000000,4280.000000,4326.153809,4164.102539,4087.692383,4229.743652,0.000000,4.000000,,,,0.000000,4.000000,4.000000,4.000000,4.000000,4.000000,100.000000,,,,,,,,,,,,
1594579371.302997,46.000000,0.000000,4273.333496,4320.000000,4167.179688,4071.794922,4224.102539,0.000000,4.000000,,,,0.000000,4.000000,4.000000,4.000000,4.000000,4.000000,100.000000,23.000000,0.000000,0.498043,0.500000,0.468750,-0.531250,1.031266,0.000000,-0.093751,-76.563667,-38.281834,8.518884
1594579371.310699,47.000000,0.000000,4298.461426,4336.410156,4167.179688,4091.794922,4243.589844,0.000000,4.000000,,,,0.000000,4.000000,4.000000,4.000000,4.000000,4.000000,100.000000,,,,,,,,,,,,
1594579371.318401,48.000000,0.000000,4301.025879,4334.358887,4160.512695,4112.307617,4233.333496,0.000000,4.000000,,,,0.000000,4.000000,4.000000,4.000000,4.000000,4.000000,100.000000,24.000000,0.000000,0.498043,0.500000,0.468750,-0.531250,1.031266,0.000000,-0.093751,-76.563667,-38.281834,7.666995
1594579371.326103,49.000000,0.000000,4292.820313,4326.153809,4161.025879,4101.538574,4223.077148,0.000000,4.000000,,,,0.000000,4.000000,4.000000,4.000000,4.000000,4.000000,100.000000,,,,,,,,,,,,
1594579371.333805,50.000000,0.000000,4292.820313,4324.102539,4162.051270,4085.128174,4242.051270,0.000000,4.000000,,,,0.000000,4.000000,4.000000,4.000000,4.000000,4.000000,100.000000,25.000000,0.000000,0.498043,0.500000,0.468750,-0.531250,1.031266,0.000000,-0.093751,-76.563667,-38.281834,6.900295
1594579371.341706,51.000000,0.000000,4304.102539,4342.563965,4165.641113,4101.025879,4251.794922,0.000000,4.000000,,,,0.000000,4.000000,4.000000,4.000000,4.000000,4.000000,100.000000,,,,,,,,,,,,
1594579371.349408,52.000000,0.000000,4323.589844,4371.282227,4174.358887,4134.871582,4247.179688,0.000000,4.000000,,,,0.000000,4.000000,4.000000,4.000000,4.000000,4.000000,100.000000,26.000000,0.000000,0.498043,0.500000,0.468750,-0.531250,1.031266,0.000000,-0.093751,-76.563667,-38.281834,10.038449
1594579371.357310,53.000000,0.000000,4301.538574,4356.922852,4153.846191,4107.692383,4226.666504,0.000000,4.000000,,,,0.000000,4.000000,4.000000,4.000000,4.000000,4.000000,100.000000,,,,,,,,,,,,
1594579371.365012,54.000000,0.000000,4264.615234,4322.051270,4127.692383,4058.974365,4205.641113,0.000000,4.000000,,,,0.000000,4.000000,4.000000,4.000000,4.000000,4.000000,100.000000,27.000000,0.000000,0.498043,0.500000,0.468750,-0.531250,1.031266,0.000000,-0.062501,-76.563667,-38.281834,9.034604
1594579371.372914,55.000000,0.000000,4260.000000,4311.794922,4125.641113,4051.281982,4197.948730,0.000000,4.000000,,,,0.000000,4.000000,4.000000,4.000000,4.000000,4.000000,100.000000,,,,,,,,,,,,
1594579371.380816,56.000000,0.000000,4269.230957,4322.051270,4136.922852,4056.923096,4197.436035,0.000000,4.000000,,,,0.000000,4.000000,4.000000,4.000000,4.000000,4.000000,100.000000,28.000000,0.000000,0.498043,0.500000,0.468750,-0.531250,1.031266,0.000000,-0.093751,-76.563667,-38.281834,8.131144
1594579371.388718,57.000000,0.000000,4278.461426,4336.410156,4148.717773,4085.128174,4208.205078,0.000000,4.000000,,,,0.000000,4.000000,4.000000,4.000000,4.000000,4.000000,100.000000,,,,,,,,,,,,
1594579371.396420,58.000000,0.000000,4277.948730,4330.256348,4136.410156,4099.487305,4215.897461,0.000000,4.000000,,,,0.000000,4.000000,4.000000,4.000000,4.000000,4.000000,100.000000,29.000000,0.000000,0.498043,0.500000,0.468750,-0.531250,1.031266,0.000000,-0.062501,-76.563667,-38.281834,7.318029
1594579371.404121,59.000000,0.000000,4271.794922,4322.051270,4126.666504,4066.666748,4222.563965,0.000000,4.000000,,,,0.000000,4.000000,4.000000,4.000000,4.000000,4.000000,100.000000,,,,,,,,,,,,
1594579371.411823,60.000000,0.000000,4269.743652,4320.000000,4141.025879,4052.307617,4228.717773,0.000000,4.000000,,,,0.000000,4.000000,4.000000,4.000000,4.000000,4.000000,100.000000,30.000000,0.000000,0.498043,0.500000,0.468750,-0.531250,1.031266,0.000000,-0.093751,-76.563667,-38.281834,6.586226
1594579371.419525,61.000000,0.000000,4268.205078,4303.589844,4152.820313,4070.769287,4218.974121,0.000000,4.000000,,,,0.000000,4.000000,4.000000,4.000000,4.000000,4.000000,100.000000,,,,,,,,,,,,
1594579371.427227,62.000000,0.000000,4283.589844,4301.538574,4161.025879,4076.410156,4217.948730,0.000000,4.000000,,,,0.000000,4.000000,4.000000,4.000000,4.000000,4.000000,100.000000,31.000000,0.000000,0.498043,0.500000,0.468750,-0.531250,1.031266,0.000000,-0.093751,-76.563667,-38.281834,5.927604
1594579371.435129,63.000000,0.000000,4290.256348,4326.153809,4147.179688,4076.410156,4220.512695,0.000000,4.000000,,,,0.000000,4.000000,4.000000,4.000000,4.000000,4.000000,100.000000,,,,,,,,,,,,
1594579371.442831,64.000000,0.000000,4275.897461,4342.563965,4128.205078,4077.435791,4215.897461,450.000000,4.000000,,,,0.000000,4.000000,4.000000,4.000000,4.000000,4.000000,100.000000,32.000000,0.000000,0.498043,0.500000,0.468750,-0.531250,1.031266,0.000000,-0.093751,-76.563667,-38.281834,5.334844
1594579371.450733,65.000000,0.000000,4278.461426,4334.358887,4138.461426,4063.589844,4220.000000,450.000000,4.000000,,,,0.000000,4.000000,4.000000,4.000000,4.000000,4.000000,100.000000,,,,,,,,,,,,
1594579371.458435,66.000000,0.000000,4275.897461,4311.794922,4134.871582,4062.564209,4208.205078,1023.000000,4.000000,,,,0.000000,4.000000,4.000000,4.000000,4.000000,4.000000,100.000000,33.000000,0.000000,0.498043,0.500000,0.468750,-0.531250,1.031266,0.000000,-0.093751,-76.563667,-38.281834,4.801359
1594579371.466336,67.000000,0.000000,4275.897461,4311.794922,4130.256348,4076.410156,4199.487305,450.000000,4.000000,,,,0.000000,4.000000,4.000000,4.000000,4.000000,4.000000,100.000000,,,,,,,,,,,,
1594579371.474038,68.000000,0.000000,4283.077148,4307.692383,4139.487305,4051.794922,4205.641113,1023.000000,4.000000,,,,0.000000,4.000000,4.000000,4.000000,4.000000,4.000000,100.000000,34.000000,0.000000,0.498043,0.500000,0.468750,-0.531250,1.031266,0.000000,-0.093751,-76.563667,-38.281834,4.321223
1594579371.481940,69.000000,0.000000,4271.282227,4281.025879,4134.358887,4030.769287,4201.025879,450.000000,4.000000,,,,0.000000,4.000000,4.000000,4.000000,4.000000,4.000000,100.000000,,,,,,,,,,,,
1594579371.489842,70.000000,0.000000,4272.820313,4307.692383,4143.589844,4070.256348,4206.666504,1023.000000,4.000000,,,,0.000000,4.000000,4.000000,4.000000,4.000000,4.000000,100.000000,35.000000,0.000000,0.498043,0.500000,0.468750,-0.531250,1.031266,0.000000,-0.062501,-76.563667,-38.281834,3.889101
1594579371.497544,71.000000,0.000000,4300.512695,4361.025879,4169.230957,4090.769287,4228.717773,450.000000,4.000000,,,,0.000000,4.000000,4.000000,4.000000,4.000000,4.000000,100.000000,,,,,,,,,,,,
1594579371.505246,72.000000,0.000000,4323.077148,4361.025879,4183.589844,4097.436035,4244.102539,450.000000,4.000000,,,,0.000000,4.000000,4.000000,4.000000,4.000000,4.000000,100.000000,36.000000,0.000000,0.498043,0.500000,0.468750,-0.531250,1.000015,0.000000,-0.093751,-76.563667,-38.281834,3.500191
1594579371.512948,73.000000,0.000000,4300.000000,4324.102539,4157.948730,4076.410156,4221.538574,1023.000000,4.000000,,,,0.000000,4.000000,4.000000,4.000000,4.000000,4.000000,100.000000,,,,,,,,,,,,
1594579371.520649,74.000000,0.000000,4267.179688,4289.230957,4114.871582,3991.281982,4190.256348,450.000000,4.000000,,,,0.000000,4.000000,4.000000,4.000000,4.000000,4.000000,100.000000,37.000000,0.000000,0.498043,0.500000,0.468750,-0.531250,1.031266,0.000000,-0.093751,-76.563667,-38.281834,3.150172
1594579371.528351,75.000000,0.000000,4293.333496,4289.230957,4124.102539,3988.205078,4216.410156,1023.000000,4.000000,,,,0.000000,4.000000,4.000000,4.000000,4.000000,4.000000,100.000000,,,,,,,,,,,,
1594579371.536053,76.000000,0.000000,4320.000000,4324.102539,4142.051270,4063.589844,4241.025879,450.000000,4.000000,,,,0.000000,4.000000,4.000000,4.000000,4.000000,4.000000,100.000000,38.000000,0.000000,0.498043,0.500000,0.468750,-0.531250,1.062516,0.000000,-0.093751,-76.563667,-38.281834,6.663338
1594579371.543955,77.000000,0.000000,4313.846191,4358.974121,4133.333496,4072.307617,4227.179688,450.000000,4.000000,,,,0.000000,4.000000,4.000000,4.000000,4.000000,4.000000,100.000000,,,,,,,,,,,,
1594579371.551657,78.000000,0.000000,4312.820313,4344.615234,4142.051270,4052.307617,4230.769043,450.000000,4.000000,,,,0.000000,4.000000,4.000000,4.000000,4.000000,4.000000,100.000000,39.000000,0.000000,0.498043,0.500000,0.468750,-0.531250,1.031266,0.000000,-0.093751,-76.563667,-38.281834,5.997004
1594579371.559559,79.000000,0.000000,4298.461426,4285.128418,4147.179688,4053.333252,4231.282227,1023.000000,4.000000,,,,0.000000,4.000000,4.000000,4.000000,4.000000,4.000000,100.000000,,,,,,,,,,,,
1594579371.567261,80.000000,0.000000,4289.230957,4268.717773,4142.051270,4040.512939,4214.871582,450.000000,4.000000,,,,0.000000,4.000000,4.000000,4.000000,4.000000,4.000000,100.000000,40.000000,0.000000,0.498043,0.500000,0.468750,-0.531250,1.031266,0.000000,-0.062501,-76.563667,-38.281834,5.397304
1594579371.575163,81.000000,0.000000,4308.205078,4281.025879,4156.922852,4017.948730,4212.820313,450.000000,4.000000,,,,0.000000,4.000000,4.000000,4.000000,4.000000,4.000000,100.000000,,,,,,,,,,,,
1594579371.582865,82.000000,0.000000,4318.974121,4268.717773,4173.846191,4018.461426,4218.974121,450.000000,4.000000,,,,0.000000,4.000000,4.000000,4.000000,4.000000,4.000000,100.000000,41.000000,0.000000,0.498043,0.500000,0.468750,-0.531250,1.031266,0.000000,-0.062501,-76.563667,-38.281834,4.857574
1594579371.590566,83.000000,0.000000,4302.051270,4264.615234,4165.641113,4050.769287,4207.692383,1023.000000,4.000000,,,,0.000000,4.000000,4.000000,4.000000,4.000000,4.000000,100.000000,,,,,,,,,,,,
1594579371.598269,84.000000,0.000000,4282.051270,4278.974121,4149.230957,4083.589844,4192.307617,450.000000,4.000000,,,,0.000000,4.000000,4.000000,4.000000,4.000000,4.000000,100.000000,42.000000,0.000000,0.498043,0.500000,0.468750,-0.531250,1.031266,0.000000,-0.062501,-76.563667,-38.281834,4.371816
1594579371.606170,85.000000,0.000000,4285.641113,4278.974121,4146.153809,4063.076904,4204.615234,450.000000,4.000000,,,,0.000000,4.000000,4.000000,4.000000,4.000000,4.000000,100.000000,,,,,,,,,,,,
1594579371.613872,86.000000,0.000000,4291.282227,4256.410156,4141.025879,3990.256348,4203.077148,450.000000,4.000000,,,,0.000000,4.000000,4.000000,4.000000,4.000000,4.000000,100.000000,43.000000,0.000000,0.498043,0.500000,0.468750,-0.531250,1.031266,0.000000,-0.093751,-76.563667,-38.281834,3.934634
1594579371.621774,87.000000,0.000000,4287.179688,4248.205078,4137.948730,3981.538574,4183.589844,1023.000000,4.000000,,,,0.000000,4.000000,4.000000,4.000000,4.000000,4.000000,100.000000,,,,,,,,,,,,
1594579371.629476,88.000000,0.000000,4270.256348,4262.563965,4127.692383,4029.743652,4175.384766,450.000000,4.000000,,,,0.000000,4.000000,4.000000,4.000000,4.000000,4.000000,100.000000,44.000000,0.000000,0.498043,0.500000,0.468750,-0.531250,1.031266,-0.031250,-0.062501,-76.563667,-38.281834,3.541171
1594579371.637378,89.000000,0.000000,4249.230957,4258.461426,4102.051270,4013.846191,4163.077148,450.000000,4.000000,,,,0.000000,4.000000,4.000000,4.000000,4.000000,4.000000,100.000000,,,,,,,,,,,,
1594579371.645080,90.000000,0.000000,4275.897461,4272.820313,4122.051270,4002.564209,4181.538574,450.000000,4.000000,,,,0.000000,4.000000,4.000000,4.000000,4.000000,4.000000,100.000000,45.000000,0.000000,0.498043,0.500000,0.468750,-0.531250,1.031266,0.000000,-0.093751,-76.563667,-38.281834,7.015237
1594579371.652982,91.000000,0.000000,4302.051270,4281.025879,4149.743652,4043.076904,4210.769043,1023.000000,4.000000,,,,0.000000,4.000000,4.000000,4.000000,4.000000,4.000000,100.000000,,,,,,,,,,,,
1594579371.660684,92.000000,0.000000,4278.461426,4248.205078,4128.205078,4043.589844,4190.256348,450.000000,4.000000,,,,0.000000,4.000000,4.000000,4.000000,4.000000,4.000000,100.000000,46.000000,0.000000,0.498043,0.500000,0.468750,-0.531250,1.031266,0.000000,-0.062501,-76.563667,-38.281834,6.313714
1594579371.668585,93.000000,0.000000,4253.846191,4244.102539,4114.871582,3988.205078,4157.436035,450.000000,4.000000,,,,0.000000,4.000000,4.000000,4.000000,4.000000,4.000000,100.000000,,,,,,,,,,,,
1594579371.676287,94.000000,0.000000,4243.077148,4256.410156,4124.615234,3962.564209,4155.384766,450.000000,4.000000,,,,0.000000,4.000000,4.000000,4.000000,4.000000,4.000000,100.000000,47.000000,0.000000,0.498043,0.500000,0.468750,-0.531250,1.031266,-0.031250,-0.093751,-76.563667,-38.281834,5.682342
1594579371.684189,95.000000,0.000000,4268.717773,4274.871582,4151.794922,4004.615479,4192.820313,1023.000000,4.000000,,,,0.000000,4.000000,4.000000,4.000000,4.000000,4.000000,100.000000,,,,,,,,,,,,
1594579371.692091,96.000000,0.000000,4305.128418,4305.641113,4170.256348,4042.051270,4227.692383,450.000000,4.000000,,,,0.000000,4.000000,4.000000,4.000000,4.000000,4.000000,100.000000,48.000000,0.000000,0.498043,0.500000,0.468750,-0.531250,1.031266,0.000000,-0.093751,-76.563667,-38.281834,5.114108
1594579371.699993,97.000000,0.000000,4307.179688,4322.051270,4165.128418,4040.512939,4225.641113,450.000000,4.000000,,,,0.000000,4.000000,4.000000,4.000000,4.000000,4.000000,100.000000,,,,,,,,,,,,
1594579371.707695,98.000000,0.000000,4316.410156,4332.307617,4168.717773,4031.794922,4232.820313,450.000000,4.000000,,,,0.000000,4.000000,4.000000,4.000000,4.000000,4.000000,100.000000,49.000000,0.000000,0.498043,0.500000,0.468750,-0.531250,1.031266,0.000000,-0.093751,-76.563667,-38.281834,4.602697
1594579371.715396,99.000000,0.000000,4322.051270,4340.512695,4163.077148,4033.333252,4244.102539,1023.000000,4.000000,,,,0.000000,4.000000,4.000000,4.000000,4.000000,4.000000,100.000000,,,,,,,,,,,,
1594579371.723098,100.000000,0.000000,4316.922852,4348.717773,4158.974121,4042.051270,4237.948730,450.000000,4.000000,,,,0.000000,4.000000,4.000000,4.000000,4.000000,4.000000,100.000000,50.000000,0.000000,0.498043,0.500000,0.468750,-0.531250,1.031266,0.000000,-0.062501,-76.563667,-38.281834,4.142427
1594579371.730800,101.000000,0.000000,4327.692383,4358.974121,4177.948730,4064.615479,4237.436035,450.000000,4.000000,,,,0.000000,4.000000,4.000000,4.000000,4.000000,4.000000,100.000000,,,,,,,,,,,,
1594579371.738502,102.000000,0.000000,4329.230957,4344.615234,4177.948730,4078.461426,4231.282227,450.000000,4.000000,,,,0.000000,4.000000,4.000000,4.000000,4.000000,4.000000,100.000000,51.000000,0.000000,0.498043,0.500000,0.468750,-0.531250,1.031266,0.000000,-0.062501,-76.563667,-38.281834,3.728185
1594579371.746404,103.000000,0.000000,4326.666504,4340.512695,4178.461426,4057.948730,4228.205078,1023.000000,4.000000,,,,0.000000,4.000000,4.000000,4.000000,4.000000,4.000000,100.000000,,,,,,,,,,,,
1594579371.754106,104.000000,0.000000,4324.102539,4344.615234,4181.538574,4026.153809,4232.307617,450.000000,4.000000,,,,0.000000,4.000000,4.000000,4.000000,4.000000,4.000000,100.000000,52.000000,0.000000,0.498043,0.500000,0.468750,-0.531250,1.031266,0.000000,-0.062501,-76.563667,-38.281834,3.355366
1594579371.762008,105.000000,0.000000,4310.256348,4330.256348,4161.025879,4037.948730,4227.692383,450.000000,4.000000,,,,0.000000,4.000000,4.000000,4.000000,4.000000,4.000000,100.000000,,,,,,,,,,,,
1594579371.769710,106.000000,0.000000,4316.922852,4336.410156,4156.410156,4091.281982,4232.307617,450.000000,4.000000,,,,0.000000,4.000000,4.000000,4.000000,4.000000,4.000000,100.000000,53.000000,0.000000,0.498043,0.500000,0.468750,-0.531250,1.031266,0.000000,-0.062501,-76.563667,-38.281834,3.019830
1594579371.777612,107.000000,0.000000,4327.692383,4358.974121,4169.743652,4065.128174,4239.487305,1023.000000,4.000000,,,,0.000000,4.000000,4.000000,4.000000,4.000000,4.000000,100.000000,,,,,,,,,,,,
1594579371.785314,108.000000,0.000000,4318.974121,4344.615234,4172.820313,4007.692383,4240.512695,450.000000,4.000000,,,,0.000000,4.000000,4.000000,4.000000,4.000000,4.000000,100.000000,54.000000,0.000000,0.498043,0.500000,0.468750,-0.531250,1.031266,0.000000,-0.062501,-76.563667,-38.281834,2.717847
1594579371.793215,109.000000,0.000000,4305.128418,4313.846191,4154.871582,4007.692383,4224.615234,450.000000,4.000000,,,,0.000000,4.000000,4.000000,4.000000,4.000000,4.000000,100.000000,,,,,,,,,,,,
1594579371.800917,110.000000,0.000000,4287.692383,4305.641113,4132.820313,4016.923096,4194.358887,450.000000,4.000000,,,,0.000000,4.000000,4.000000,4.000000,4.000000,4.000000,100.000000,55.000000,0.000000,0.498043,0.500000,0.468750,-0.531250,1.031266,0.000000,-0.062501,-76.563667,-38.281834,2.446062
1594579371.808819,111.000000,0.000000,4286.666504,4307.692383,4141.538574,4043.589844,4201.025879,1023.000000,4.000000,,,,0.000000,4.000000,4.000000,4.000000,4.000000,4.000000,100.000000,,,,,,,,,,,,
1594579371.816521,112.000000,0.000000,4297.948730,4299.487305,4159.487305,4065.128174,4234.358887,450.000000,4.000000,,,,0.000000,4.000000,4.000000,4.000000,4.000000,4.000000,100.000000,56.000000,0.000000,0.498043,0.500000,0.468750,-0.531250,1.031266,0.000000,-0.062501,-76.563667,-38.281834,2.201456
1594579371.824423,113.000000,0.000000,4308.717773,4311.794922,4165.641113,4059.487061,4251.282227,450.000000,4.000000,,,,0.000000,4.000000,4.000000,4.000000,4.000000,4.000000,100.000000,,,,,,,,,,,,
1594579371.832125,114.000000,0.000000,4304.102539,4330.256348,4150.256348,4008.205078,4235.384766,450.000000,4.000000,,,,0.000000,4.000000,4.000000,4.000000,4.000000,4.000000,100.000000,57.000000,0.000000,0.498043,0.500000,0.468750,-0.531250,1.031266,0.000000,-0.062501,-76.563667,-38.281834,1.981310
1594579371.839826,115.000000,0.000000,4286.153809,4313.846191,4130.256348,3963.589844,4209.230957,1023.000000,4.000000,,,,0.000000,4.000000,4.000000,4.000000,4.000000,4.000000,100.000000,,,,,,,,,,,,
1594579371.847529,116.000000,0.000000,4297.436035,4309.743652,4146.153809,4001.025635,4220.512695,450.000000,4.000000,,,,0.000000,4.000000,4.000000,4.000000,4.000000,4.000000,100.000000,58.000000,0.000000,0.498043,0.500000,0.468750,-0.531250,1.031266,0.000000,-0.062501,-76.563667,-38.281834,5.611362
1594579371.855430,117.000000,0.000000,4307.179688,4313.846191,4158.461426,4039.487061,4227.179688,450.000000,4.000000,,,,0.000000,4.000000,4.000000,4.000000,4.000000,4.000000,100.000000,,,,,,,,,,,,
1594579371.863132,118.000000,0.000000,4313.333496,4303.589844,4161.025879,4059.487061,4225.128418,450.000000,4.000000,,,,0.000000,4.000000,4.000000,4.000000,4.000000,4.000000,100.000000,59.000000,0.000000,0.498043,0.500000,0.468750,-0.531250,1.031266,0.000000,-0.062501,-76.563667,-38.281834,5.050226
1594579371.871034,119.000000,0.000000,4336.922852,4301.538574,4180.512695,4075.897461,4244.615234,1023.000000,4.000000,,,,0.000000,4.000000,4.000000,4.000000,4.000000,4.000000,100.000000,,,,,,,,,,,,
1594579371.878936,120.000000,0.000000,4330.769043,4309.743652,4174.358887,4027.179443,4238.974121,450.000000,4.000000,,,,0.000000,4.000000,4.000000,4.000000,4.000000,4.000000,100.000000,60.000000,0.000000,0.498043,0.500000,0.468750,-0.531250,1.031266,0.000000,-0.062501,-76.563667,-38.281834,4.545204
1594579371.886838,121.000000,0.000000,4319.487305,4320.000000,4166.666504,3996.410156,4229.743652,450.000000,4.000000,,,,0.000000,4.000000,4.000000,4.000000,4.000000,4.000000,100.000000,,,,,,,,,,,,
1594579371.894739,122.000000,0.000000,4334.358887,4317.948730,4188.717773,4072.307617,4249.743652,450.000000,4.000000,,,,0.000000,4.000000,4.000000,4.000000,4.000000,4.000000,100.000000,61.000000,0.000000,0.498043,0.500000,0.468750,-0.531250,1.031266,0.000000,-0.093751,-76.563667,-38.281834,4.090683
1594579371.902541,123.000000,0.000000,4326.666504,4293.333496,4181.025879,4097.948730,4244.102539,1023.000000,4.000000,,,,0.000000,4.000000,4.000000,4.000000,4.000000,4.000000,100.000000,,,,,,,,,,,,
1594579371.910243,124.000000,0.000000,4288.205078,4281.025879,4136.922852,3999.487061,4202.563965,450.000000,4.000000,,,,0.000000,4.000000,4.000000,4.000000,4.000000,4.000000,100.000000,62.000000,0.000000,0.498043,0.500000,0.468750,-0.531250,1.031266,0.000000,-0.093751,-76.563667,-38.281834,3.681615
1594579371.918145,125.000000,0.000000,4292.307617,4299.487305,4134.871582,3969.743652,4195.897461,450.000000,4.000000,,,,0.000000,4.000000,4.000000,4.000000,4.000000,4.000000,100.000000,,,,,,,,,,,,
1594579371.926047,126.000000,0.000000,4348.205078,4326.153809,4182.563965,4064.615479,4247.179688,450.000000,4.000000,,,,0.000000,4.000000,4.000000,4.000000,4.000000,4.000000,100.000000,63.000000,0.000000,0.498043,0.500000,0.468750,-0.531250,1.031266,0.000000,-0.093751,-76.563667,-38.281834,3.313453
1594579371.933749,127.000000,0.000000,4349.743652,4320.000000,4183.589844,4089.230713,4262.051270,242.000000,4.000000,,,,0.000000,4.000000,4.000000,4.000000,4.000000,4.000000,100.000000,,,,,,,,,,,,
1594579371.941451,0.000000,0.000000,4309.743652,4305.641113,4144.615234,4008.205078,4224.615234,450.000000,4.000000,,,,0.000000,4.000000,4.000000,4.000000,4.000000,4.000000,100.000000,0.000000,0.000000,0.498043,0.500000,0.468750,-0.531250,1.031266,0.000000,-0.093751,-76.563667,-38.281834,2.982108
1594579371.949352,1.000000,0.000000,4311.282227,4315.897461,4141.025879,3998.461426,4215.897461,450.000000,4.000000,,,,0.000000,4.000000,4.000000,4.000000,4.000000,4.000000,100.000000,,,,,,,,,,,,
1594579371.957054,2.000000,0.000000,4309.230957,4305.641113,4147.179688,4046.666748,4216.922852,1023.000000,4.000000,,,,0.000000,4.000000,4.000000,4.000000,4.000000,4.000000,100.000000,1.000000,0.000000,0.498043,0.500000,0.468750,-0.531250,1.031266,0.000000,-0.093751,-76.563667,-38.281834,2.683897
1594579371.964756,3.000000,0.000000,4303.589844,4297.436035,4152.820313,4032.820557,4212.820313,450.000000,4.000000,,,,0.000000,4.000000,4.000000,4.000000,4.000000,4.000000,100.000000,,,,,,,,,,,,
1594579371.972458,4.000000,0.000000,4316.410156,4309.743652,4160.000000,4009.230713,4218.461426,1023.000000,4.000000,,,,0.000000,4.000000,4.000000,4.000000,4.000000,4.000000,100.000000,2.000000,0.000000,0.498043,0.500000,0.468750,-0.531250,1.031266,0.000000,-0.062501,-76.563667,-38.281834,2.415508
1594579371.980360,5.000000,0.000000,4312.820313,4307.692383,4153.333496,4034.358887,4221.538574,450.000000,4.000000,,,,0.000000,4.000000,4.000000,4.000000,4.000000,4.000000,100.000000,,,,,,,,,,,,
1594579371.988062,6.000000,0.000000,4321.025879,4322.051270,4172.820313,4041.025635,4241.025879,1023.000000,4.000000,,,,0.000000,4.000000,4.000000,4.000000,4.000000,4.000000,100.000000,3.000000,0.000000,0.498043,0.500000,0.468750,-0.531250,1.031266,0.000000,-0.093751,-76.563667,-38.281834,6.002140
1594579371.995963,7.000000,0.000000,4334.871582,4332.307617,4191.794922,4026.153809,4257.436035,450.000000,4.000000,,,,0.000000,4.000000,4.000000,4.000000,4.000000,4.000000,100.000000,,,,,,,,,,,,
1594579372.003665,8.000000,0.000000,4329.230957,4328.205078,4180.512695,4064.615479,4248.205078,450.000000,4.000000,,,,0.000000,4.000000,4.000000,4.000000,4.000000,4.000000,100.000000,4.000000,0.000000,0.498043,0.500000,0.468750,-0.531250,1.031266,0.031250,-0.093751,-76.563667,-38.281834,5.401926
1594579372.011367,9.000000,0.000000,4326.666504,4330.256348,4174.871582,4078.974365,4240.512695,1023.000000,4.000000,,,,0.000000,4.000000,4.000000,4.000000,4.000000,4.000000,100.000000,,,,,,,,,,,,
1594579372.019069,10.000000,0.000000,4318.974121,4307.692383,4170.769043,4018.461426,4232.820313,450.000000,4.000000,,,,0.000000,4.000000,4.000000,4.000000,4.000000,4.000000,100.000000,5.000000,0.000000,0.498043,0.500000,0.468750,-0.531250,1.031266,0.000000,-0.093751,-76.563667,-38.281834,4.861733
1594579372.026971,11.000000,0.000000,4308.205078,4291.282227,4158.461426,4009.230713,4226.153809,1023.000000,4.000000,,,,0.000000,4.000000,4.000000,4.000000,4.000000,4.000000,100.000000,,,,,,,,,,,,
1594579372.034673,12.000000,0.000000,4304.102539,4315.897461,4152.307617,4039.487061,4225.641113,450.000000,4.000000,,,,0.000000,4.000000,4.000000,4.000000,4.000000,4.000000,100.000000,6.000000,0.000000,0.498043,0.500000,0.468750,-0.531250,1.031266,0.000000,-0.093751,-76.563667,-38.281834,4.375560
1594579372.042574,13.000000,0.000000,4300.512695,4338.461426,4170.769043,4035.897461,4232.820313,450.000000,4.000000,,,,0.000000,4.000000,4.000000,4.000000,4.000000,4.000000,100.000000,,,,,,,,,,,,
1594579372.050277,14.000000,0.000000,4300.000000,4334.358887,4192.820313,4041.538574,4236.922852,450.000000,4.000000,,,,0.000000,4.000000,4.000000,4.000000,4.000000,4.000000,100.000000,7.000000,0.000000,0.498043,0.500000,0.468750,-0.531250,1.031266,0.000000,-0.062501,-76.563667,-38.281834,3.938004
1594579372.058178,15.000000,0.000000,4296.922852,4309.743652,4175.897461,4036.410156,4227.179688,1023.000000,4.000000,,,,0.000000,4.000000,4.000000,4.000000,4.000000,4.000000,100.000000,,,,,,,,,,,,
1594579372.065880,16.000000,0.000000,4298.974121,4307.692383,4156.922852,4015.384521,4231.282227,0.000000,4.000000,,,,0.000000,4.000000,4.000000,4.000000,4.000000,4.000000,100.000000,8.000000,0.000000,0.498043,0.500000,0.468750,-0.531250,1.031266,0.000000,-0.062501,-76.563667,-38.281834,3.544204
1594579372.073782,17.000000,0.000000,4308.717773,4326.153809,4166.666504,4015.897461,4242.563965,0.000000,4.000000,,,,0.000000,4.000000,4.000000,4.000000,4.000000,4.000000,100.000000,,,,,,,,,,,,
1594579372.081683,18.000000,0.000000,4310.256348,4317.948730,4172.820313,3998.974365,4234.358887,0.000000,4.000000,,,,0.000000,4.000000,4.000000,4.000000,4.000000,4.000000,100.000000,9.000000,0.000000,0.498043,0.500000,0.468750,-0.531250,1.031266,0.000000,-0.062501,-76.563667,-38.281834,3.189783
1594579372.089585,19.000000,0.000000,4297.948730,4291.282227,4151.282227,3965.128174,4218.974121,0.000000,4.000000,,,,0.000000,4.000000,4.000000,4.000000,4.000000,4.000000,100.000000,,,,,,,,,,,,
1594579372.097287,20.000000,0.000000,4279.487305,4281.025879,4123.589844,3980.512939,4206.153809,0.000000,4.000000,,,,0.000000,4.000000,4.000000,4.000000,4.000000,4.000000,100.000000,10.000000,0.000000,0.498043,0.500000,0.468750,-0.531250,1.031266,0.000000,-0.062501,-76.563667,-38.281834,6.698988
1594579372.105189,21.000000,0.000000,4278.461426,4295.384766,4123.589844,4022.051270,4200.000000,0.000000,4.000000,,,,0.000000,4.000000,4.000000,4.000000,4.000000,4.000000,100.000000,,,,,,,,,,,,
1594579372.112891,22.000000,0.000000,4281.538574,4305.641113,4125.128418,4006.666748,4200.000000,0.000000,4.000000,,,,0.000000,4.000000,4.000000,4.000000,4.000000,4.000000,100.000000,11.000000,0.000000,0.498043,0.500000,0.468750,-0.531250,1.031266,0.000000,-0.062501,-76.563667,-38.281834,6.029089
1594579372.120592,23.000000,0.000000,4294.871582,4303.589844,4136.410156,3988.718018,4227.179688,0.000000,4.000000,,,,0.000000,4.000000,4.000000,4.000000,4.000000,4.000000,100.000000,,,,,,,,,,,,
1594579372.128295,24.000000,0.000000,4335.897461,4315.897461,4185.641113,4057.435791,4276.922852,0.000000,4.000000,,,,0.000000,4.000000,4.000000,4.000000,4.000000,4.000000,100.000000,12.000000,0.000000,0.498043,0.500000,0.468750,-0.531250,1.031266,0.000000,-0.093751,-76.563667,-38.281834,5.426181
1594579372.136196,25.000000,0.000000,4330.769043,4315.897461,4180.000000,4064.615479,4259.487305,0.000000,4.000000,,,,0.000000,4.000000,4.000000,4.000000,4.000000,4.000000,100.000000,,,,,,,,,,,,
1594579372.143998,26.000000,0.000000,4274.871582,4291.282227,4121.538574,3975.897461,4200.512695,0.000000,4.000000,,,,0.000000,4.000000,4.000000,4.000000,4.000000,4.000000,100.000000,13.000000,0.000000,0.498043,0.500000,0.468750,-0.531250,1.031266,0.000000,-0.062501,-76.563667,-38.281834,4.883563
1594579372.151900,27.000000,0.000000,4262.051270,4260.512695,4123.589844,3972.307617,4206.153809,0.000000,4.000000,,,,0.000000,4.000000,4.000000,4.000000,4.000000,4.000000,100.000000,,,,,,,,,,,,
1594579372.159602,28.000000,0.000000,4293.846191,4254.358887,4165.128418,4039.487061,4249.743652,0.000000,4.000000,,,,0.000000,4.000000,4.000000,4.000000,4.000000,4.000000,100.000000,14.000000,0.000000,0.498043,0.500000,0.468750,-0.531250,1.031266,0.000000,-0.093751,-76.563667,-38.281834,4.395206
1594579372.167504,29.000000,0.000000,4312.307617,4299.487305,4177.436035,4057.948730,4263.077148,0.000000,4.000000,,,,0.000000,4.000000,4.000000,4.000000,4.000000,4.000000,100.000000,,,,,,,,,,,,
1594579372.175206,30.000000,0.000000,4297.436035,4324.102539,4154.358887,4033.846191,4236.922852,0.000000,4.000000,,,,0.000000,4.000000,4.000000,4.000000,4.000000,4.000000,100.000000,15.000000,0.000000,0.498043,0.500000,0.468750,-0.531250,1.031266,0.000000,-0.062501,-76.563667,-38.281834,3.955686
1594579372.183107,31.000000,0.000000,4295.897461,4295.384766,4145.128418,4028.718018,4224.615234,0.000000,4.000000,,,,0.000000,4.000000,4.000000,4.000000,4.000000,4.000000,100.000000,,,,,,,,,,,,
1594579372.190810,32.000000,0.000000,4319.487305,4299.487305,4164.615234,4034.871826,4254.871582,0.000000,4.000000,,,,0.000000,4.000000,4.000000,4.000000,4.000000,4.000000,100.000000,16.000000,0.000000,0.498043,0.500000,0.468750,-0.531250,1.031266,0.000000,-0.062501,-76.563667,-38.281834,3.560117
1594579372.198711,33.000000,0.000000,4323.077148,4322.051270,4174.358887,4036.410156,4269.230957,0.000000,4.000000,,,,0.000000,4.000000,4.000000,4.000000,4.000000,4.000000,100.000000,,,,,,,,,,,,
1594579372.206413,34.000000,0.000000,4326.153809,4320.000000,4177.948730,4061.025635,4259.487305,0.000000,4.000000,,,,0.000000,4.000000,4.000000,4.000000,4.000000,4.000000,100.000000,17.000000,0.000000,0.498043,0.500000,0.468750,-0.531250,1.031266,0.000000,-0.093751,-76.563667,-38.281834,3.204105
1594579372.214115,35.000000,0.000000,4322.051270,4320.000000,4171.282227,4086.153809,4249.230957,0.000000,4.000000,,,,0.000000,4.000000,4.000000,4.000000,4.000000,4.000000,100.000000,,,,,,,,,,,,
1594579372.221817,36.000000,0.000000,4300.512695,4328.205078,4153.333496,4057.435791,4240.512695,0.000000,4.000000,,,,0.000000,4.000000,4.000000,4.000000,4.000000,4.000000,100.000000,18.000000,0.000000,0.498043,0.500000,0.468750,-0.531250,1.031266,0.000000,-0.093751,-76.563667,-38.281834,2.883695
1594579372.229718,37.000000,0.000000,4295.897461,4326.153809,4151.282227,3995.897461,4243.589844,0.000000,4.000000,,,,0.000000,4.000000,4.000000,4.000000,4.000000,4.000000,100.000000,,,,,,,,,,,,
1594579372.237421,38.000000,0.000000,4287.692383,4295.384766,4149.230957,4001.025635,4238.461426,0.000000,4.000000,,,,0.000000,4.000000,4.000000,4.000000,4.000000,4.000000,100.000000,19.000000,0.000000,0.498043,0.500000,0.468750,-0.531250,1.031266,0.000000,-0.093751,-76.563667,-38.281834,2.595325
1594579372.245322,39.000000,0.000000,4283.077148,4283.077148,4151.794922,4066.153809,4235.897461,0.000000,4.000000,,,,0.000000,4.000000,4.000000,4.000000,4.000000,4.000000,100.000000,,,,,,,,,,,,
1594579372.253024,40.000000,0.000000,4291.282227,4285.128418,4162.563965,4062.564209,4246.666504,0.000000,4.000000,,,,0.000000,4.000000,4.000000,4.000000,4.000000,4.000000,100.000000,20.000000,0.000000,0.498043,0.500000,0.468750,-0.531250,1.031266,0.000000,-0.093751,-76.563667,-38.281834,2.335793
1594579372.260926,41.000000,0.000000,4298.461426,4276.922852,4174.358887,4040.512939,4257.948730,0.000000,4.000000,,,,0.000000,4.000000,4.000000,4.000000,4.000000,4.000000,100.000000,,,,,,,,,,,,
1594579372.268628,42.000000,0.000000,4303.077148,4291.282227,4179.487305,4058.974365,4256.922852,0.000000,4.000000,,,,0.000000,4.000000,4.000000,4.000000,4.000000,4.000000,100.000000,21.000000,0.000000,0.498043,0.500000,0.468750,-0.531250,1.031266,0.000000,-0.093751,-76.563667,-38.281834,2.102214
1594579372.276529,43.000000,0.000000,4287.179688,4293.333496,4155.384766,4007.692383,4226.153809,0.000000,4.000000,,,,0.000000,4.000000,4.000000,4.000000,4.000000,4.000000,100.000000,,,,,,,,,,,,
1594579372.284231,44.000000,0.000000,4282.563965,4281.025879,4146.153809,3983.076904,4221.538574,0.000000,4.000000,,,,0.000000,4.000000,4.000000,4.000000,4.000000,4.000000,100.000000,22.000000,0.000000,0.498043,0.500000,0.468750,-0.531250,1.031266,0.000000,-0.093751,-76.563667,-38.281834,1.891992
1594579372.292133,45.000000,0.000000,4300.000000,4270.769043,4164.102539,4073.846191,4252.820313,0.000000,4.000000,,,,0.000000,4.000000,4.000000,4.000000,4.000000,4.000000,100.000000,,,,,,,,,,,,
1594579372.300035,46.000000,0.000000,4295.897461,4237.948730,4153.846191,4074.358887,4252.307617,0.000000,4.000000,,,,0.000000,4.000000,4.000000,4.000000,4.000000,4.000000,100.000000,23.000000,0.000000,0.498043,0.500000,0.468750,-0.531250,1.031266,0.000000,-0.093751,-76.563667,-38.281834,1.702793
1594579372.307837,47.000000,0.000000,4289.230957,4219.487305,4142.563965,4008.205078,4246.666504,0.000000,4.000000,,,,0.000000,4.000000,4.000000,4.000000,4.000000,4.000000,100.000000,,,,,,,,,,,,
1594579372.315538,48.000000,0.000000,4293.846191,4231.794922,4151.282227,4024.102539,4256.410156,0.000000,4.000000,,,,0.000000,4.000000,4.000000,4.000000,4.000000,4.000000,100.000000,24.000000,0.000000,0.498043,0.500000,0.468750,-0.531250,1.031266,0.000000,-0.093751,-76.563667,-38.281834,5.360697
1594579372.323240,49.000000,0.000000,4298.974121,4221.538574,4155.897461,4034.358887,4244.102539,0.000000,4.000000,,,,0.000000,4.000000,4.000000,4.000000,4.000000,4.000000,100.000000,,,,,,,,,,,,
1594579372.330942,50.000000,0.000000,4309.230957,4209.230957,4159.487305,4024.102539,4237.948730,0.000000,4.000000,,,,0.000000,4.000000,4.000000,4.000000,4.000000,4.000000,100.000000,25.000000,0.000000,0.498043,0.500000,0.468750,-0.531250,1.031266,0.000000,-0.093751,-76.563667,-38.281834,4.824627
1594579372.338644,51.000000,0.000000,4308.717773,4227.692383,4164.102539,4051.281982,4246.666504,0.000000,4.000000,,,,0.000000,4.000000,4.000000,4.000000,4.000000,4.000000,100.000000,,,,,,,,,,,,
1594579372.346346,52.000000,0.000000,4307.692383,4237.948730,4166.153809,4062.564209,4249.230957,0.000000,4.000000,,,,0.000000,4.000000,4.000000,4.000000,4.000000,4.000000,100.000000,26.000000,0.000000,0.498043,0.500000,0.468750,-0.531250,1.031266,0.000000,-0.093751,-76.563667,-38.281834,4.342165
1594579372.354248,53.000000,0.000000,4306.666504,4215.384766,4149.230957,4036.410156,4243.077148,0.000000,4.000000,,,,0.000000,4.000000,4.000000,4.000000,4.000000,4.000000,100.000000,,,,,,,,,,,,
1594579372.361950,54.000000,0.000000,4299.487305,4213.333496,4131.282227,4040.512939,4241.025879,0.000000,4.000000,,,,0.000000,4.000000,4.000000,4.000000,4.000000,4.000000,100.000000,27.000000,0.000000,0.498043,0.500000,0.468750,-0.531250,1.031266,-0.031250,-0.093751,-76.563667,-38.281834,3.907948
1594579372.369852,55.000000,0.000000,4301.538574,4242.051270,4138.461426,4058.974365,4245.128418,0.000000,4.000000,,,,0.000000,4.000000,4.000000,4.000000,4.000000,4.000000,100.000000,,,,,,,,,,,,
1594579372.377554,56.000000,0.000000,4297.436035,4244.102539,4136.410156,4003.076904,4236.922852,0.000000,4.000000,,,,0.000000,4.000000,4.000000,4.000000,4.000000,4.000000,100.000000,28.000000,0.000000,0.498043,0.500000,0.468750,-0.531250,1.031266,0.000000,-0.062501,-76.563667,-38.281834,3.517153
1594579372.385455,57.000000,0.000000,4280.512695,4209.230957,4114.871582,3959.487061,4222.563965,0.000000,4.000000,,,,0.000000,4.000000,4.000000,4.000000,4.000000,4.000000,100.000000,,,,,,,,,,,,
1594579372.393158,58.000000,0.000000,4263.077148,4180.512695,4087.692383,3987.692383,4206.666504,0.000000,4.000000,,,,0.000000,4.000000,4.000000,4.000000,4.000000,4.000000,100.000000,29.000000,0.000000,0.498043,0.500000,0.468750,-0.531250,1.031266,-0.031250,-0.093751,-76.563667,-38.281834,3.165438
1594579372.401059,59.000000,0.000000,4273.846191,4196.922852,4098.461426,4037.948730,4216.922852,0.000000,4.000000,,,,0.000000,4.000000,4.000000,4.000000,4.000000,4.000000,100.000000,,,,,,,,,,,,
1594579372.408961,60.000000,0.000000,4321.538574,4250.256348,4149.743652,4090.769287,4258.974121,0.000000,4.000000,,,,0.000000,4.000000,4.000000,4.000000,4.000000,4.000000,100.000000,30.000000,0.000000,0.498043,0.500000,0.468750,-0.531250,1.031266,0.000000,-0.093751,-76.563667,-38.281834,2.848894
1594579372.416863,61.000000,0.000000,4337.948730,4264.615234,4161.025879,4083.589844,4264.615234,0.000000,4.000000,,,,0.000000,4.000000,4.000000,4.000000,4.000000,4.000000,100.000000,,,,,,,,,,,,
1594579372.424565,62.000000,0.000000,4309.230957,4235.897461,4134.358887,4003.589844,4239.487305,0.000000,4.000000,,,,0.000000,4.000000,4.000000,4.000000,4.000000,4.000000,100.000000,31.000000,0.000000,0.498043,0.500000,0.468750,-0.531250,1.031266,0.000000,-0.093751,-76.563667,-38.281834,2.564005
1594579372.432467,63.000000,0.000000,4281.025879,4203.077148,4112.820313,3971.281982,4214.358887,0.000000,4.000000,,,,0.000000,4.000000,4.000000,4.000000,4.000000,4.000000,100.000000,,,,,,,,,,,,
1594579372.440169,64.000000,0.000000,4269.230957,4186.666504,4102.563965,4028.718018,4198.461426,450.000000,4.000000,,,,0.000000,4.000000,4.000000,4.000000,4.000000,4.000000,100.000000,32.000000,0.000000,0.498043,0.500000,0.468750,-0.531250,1.031266,0.000000,-0.093751,-76.563667,-38.281834,2.307604
1594579372.448070,65.000000,0.000000,4278.974121,4207.179688,4112.307617,4061.025635,4206.153809,450.000000,4.000000,,,,0.000000,4.000000,4.000000,4.000000,4.000000,4.000000,100.000000,,,,,,,,,,,,
1594579372.455772,66.000000,0.000000,4280.000000,4217.436035,4109.743652,3993.846191,4206.666504,1023.000000,4.000000,,,,0.000000,4.000000,4.000000,4.000000,4.000000,4.000000,100.000000,33.000000,0.000000,0.498043,0.500000,0.468750,-0.531250,1.031266,0.000000,-0.062501,-76.563667,-38.281834,2.076844
1594579372.463674,67.000000,0.000000,4280.512695,4223.589844,4108.717773,3967.692383,4211.794922,450.000000,4.000000,,,,0.000000,4.000000,4.000000,4.000000,4.000000,4.000000,100.000000,,,,,,,,,,,,
1594579372.471376,68.000000,0.000000,4297.436035,4246.153809,4134.871582,4042.564209,4240.000000,1023.000000,4.000000,,,,0.000000,4.000000,4.000000,4.000000,4.000000,4.000000,100.000000,34.000000,0.000000,0.498043,0.500000,0.468750,-0.531250,1.031266,0.000000,-0.093751,-76.563667,-38.281834,1.869159
1594579372.479277,69.000000,0.000000,4293.846191,4242.051270,4136.410156,4044.102539,4232.820313,450.000000,4.000000,,,,0.000000,4.000000,4.000000,4.000000,4.000000,4.000000,100.000000,,,,,,,,,,,,
1594579372.486980,70.000000,0.000000,4295.897461,4233.846191,4126.153809,4002.564209,4221.538574,1023.000000,4.000000,,,,0.000000,4.000000,4.000000,4.000000,4.000000,4.000000,100.000000,35.000000,0.000000,0.498043,0.500000,0.468750,-0.531250,1.031266,-0.031250,-0.062501,-76.563667,-38.281834,1.682244
1594579372.494881,71.000000,0.000000,4309.230957,4242.051270,4137.436035,4035.897461,4238.461426,450.000000,4.000000,,,,0.000000,4.000000,4.000000,4.000000,4.000000,4.000000,100.000000,,,,,,,,,,,,
1594579372.502783,72.000000,0.000000,4303.589844,4246.153809,4144.102539,4074.871826,4235.897461,450.000000,4.000000,,,,0.000000,4.000000,4.000000,4.000000,4.000000,4.000000,100.000000,36.000000,0.000000,0.498043,0.500000,0.468750,-0.531250,1.031266,0.000000,-0.093751,-76.563667,-38.281834,1.514019
1594579372.510685,73.000000,0.000000,4291.282227,4242.051270,4134.358887,4045.641113,4216.410156,1023.000000,4.000000,,,,0.000000,4.000000,4.000000,4.000000,4.000000,4.000000,100.000000,,,,,,,,,,,,
1594579372.518386,74.000000,0.000000,4273.333496,4213.333496,4115.897461,3978.461426,4202.563965,450.000000,4.000000,,,,0.000000,4.000000,4.000000,4.000000,4.000000,4.000000,100.000000,37.000000,0.000000,0.498043,0.500000,0.468750,-0.531250,1.031266,0.000000,-0.093751,-76.563667,-38.281834,1.362617
1594579372.526088,75.000000,0.000000,4256.410156,4192.820313,4104.615234,3975.897461,4199.487305,1023.000000,4.000000,,,,0.000000,4.000000,4.000000,4.000000,4.000000,4.000000,100.000000,,,,,,,,,,,,
1594579372.533790,76.000000,0.000000,4249.230957,4198.974121,4099.487305,4022.051270,4197.436035,450.000000,4.000000,,,,0.000000,4.000000,4.000000,4.000000,4.000000,4.000000,100.000000,38.000000,0.000000,0.498043,0.500000,0.468750,-0.531250,1.031266,0.000000,-0.093751,-76.563667,-38.281834,1.226356
1594579372.541492,77.000000,0.000000,4260.512695,4205.128418,4104.615234,4031.794922,4202.051270,450.000000,4.000000,,,,0.000000,4.000000,4.000000,4.000000,4.000000,4.000000,100.000000,,,,,,,,,,,,
1594579372.549194,78.000000,0.000000,4264.102539,4194.871582,4105.128418,3993.846191,4205.128418,450.000000,4.000000,,,,0.000000,4.000000,4.000000,4.000000,4.000000,4.000000,100.000000,39.000000,0.000000,0.498043,0.500000,0.468750,-0.531250,1.031266,0.000000,-0.093751,-76.563667,-38.281834,1.103720
1594579372.556896,79.000000,0.000000,4233.846191,4168.205078,4077.435791,3962.051270,4175.384766,1023.000000,4.000000,,,,0.000000,4.000000,4.000000,4.000000,4.000000,4.000000,100.000000,,,,,,,,,,,,
1594579372.564598,80.000000,0.000000,4245.128418,4176.410156,4088.718018,3986.666748,4175.384766,450.000000,4.000000,,,,0.000000,4.000000,4.000000,4.000000,4.000000,4.000000,100.000000,40.000000,0.000000,0.498043,0.500000,0.468750,-0.531250,1.031266,0.000000,-0.062501,-76.563667,-38.281834,0.993348
1594579372.572499,81.000000,0.000000,4293.846191,4217.436035,4142.051270,4029.743652,4222.563965,450.000000,4.000000,,,,0.000000,4.000000,4.000000,4.000000,4.000000,4.000000,100.000000,,,,,,,,,,,,
1594579372.580201,82.000000,0.000000,4294.871582,4229.743652,4150.769043,4052.307617,4231.282227,450.000000,4.000000,,,,0.000000,4.000000,4.000000,4.000000,4.000000,4.000000,100.000000,41.000000,0.000000,0.498043,0.500000,0.468750,-0.531250,1.031266,0.000000,-0.062501,-76.563667,-38.281834,4.722197
1594579372.588103,83.000000,0.000000,4274.871582,4221.538574,4127.179688,4027.179443,4207.692383,1023.000000,4.000000,,,,0.000000,4.000000,4.000000,4.000000,4.000000,4.000000,100.000000,,,,,,,,,,,,
1594579372.595805,84.000000,0.000000,4264.615234,4209.230957,4112.307617,3989.230713,4195.897461,450.000000,4.000000,,,,0.000000,4.000000,4.000000,4.000000,4.000000,4.000000,100.000000,42.000000,0.000000,0.498043,0.500000,0.468750,-0.531250,1.031266,0.000000,-0.093751,-76.563667,-38.281834,8.078160
1594579372.603707,85.000000,0.000000,4266.666504,4209.230957,4115.897461,4014.358887,4197.948730,450.000000,4.000000,,,,0.000000,4.000000,4.000000,4.000000,4.000000,4.000000,100.000000,,,,,,,,,,,,
1594579372.611409,86.000000,0.000000,4273.846191,4221.538574,4127.179688,4060.512939,4202.563965,450.000000,4.000000,,,,0.000000,4.000000,4.000000,4.000000,4.000000,4.000000,100.000000,43.000000,0.000000,0.498043,0.500000,0.468750,-0.531250,1.031266,0.000000,-0.093751,-76.563667,-38.281834,7.270344
1594579372.619311,87.000000,0.000000,4256.410156,4213.333496,4118.461426,4012.820557,4186.666504,1023.000000,4.000000,,,,0.000000,4.000000,4.000000,4.000000,4.000000,4.000000,100.000000,,,,,,,,,,,,
1594579372.627013,88.000000,0.000000,4238.461426,4221.538574,4102.563965,3952.307617,4167.692383,450.000000,4.000000,,,,0.000000,4.000000,4.000000,4.000000,4.000000,4.000000,100.000000,44.000000,0.000000,0.498043,0.500000,0.468750,-0.531250,1.031266,-0.031250,-0.062501,-76.563667,-38.281834,6.543310
1594579372.634914,89.000000,0.000000,4260.000000,4252.307617,4112.307617,4009.743652,4178.974121,450.000000,4.000000,,,,0.000000,4.000000,4.000000,4.000000,4.000000,4.000000,100.000000,,,,,,,,,,,,
1594579372.642616,90.000000,0.000000,4297.948730,4268.717773,4149.743652,4068.205078,4210.769043,450.000000,4.000000,,,,0.000000,4.000000,4.000000,4.000000,4.000000,4.000000,100.000000,45.000000,0.000000,0.498043,0.500000,0.468750,-0.531250,1.031266,0.000000,-0.062501,-76.563667,-38.281834,5.888979
1594579372.650518,91.000000,0.000000,4295.897461,4260.512695,4157.948730,4043.589844,4221.025879,1023.000000,4.000000,,,,0.000000,4.000000,4.000000,4.000000,4.000000,4.000000,100.000000,,,,,,,,,,,,
1594579372.658220,92.000000,0.000000,4245.128418,4235.897461,4109.230957,4009.743652,4183.589844,450.000000,4.000000,,,,0.000000,4.000000,4.000000,4.000000,4.000000,4.000000,100.000000,46.000000,0.000000,0.498043,0.500000,0.468750,-0.531250,1.031266,0.000000,-0.062501,-76.563667,-38.281834,5.300081
1594579372.666122,93.000000,0.000000,4230.256348,4233.846191,4097.436035,3993.846191,4160.512695,450.000000,4.000000,,,,0.000000,4.000000,4.000000,4.000000,4.000000,4.000000,100.000000,,,,,,,,,,,,
1594579372.673824,94.000000,0.000000,4264.615234,4246.153809,4138.461426,3991.281982,4177.436035,450.000000,4.000000,,,,0.000000,4.000000,4.000000,4.000000,4.000000,4.000000,100.000000,47.000000,0.000000,0.498043,0.500000,0.468750,-0.531250,1.031266,0.000000,-0.062501,-76.563667,-38.281834,8.598256
1594579372.681725,95.000000,0.000000,4266.666504,4227.692383,4140.000000,3994.871826,4177.436035,1023.000000,4.000000,,,,0.000000,4.000000,4.000000,4.000000,4.000000,4.000000,100.000000,,,,,,,,,,,,
1594579372.689627,96.000000,0.000000,4237.436035,4219.487305,4104.102539,3991.281982,4161.538574,450.000000,4.000000,,,,0.000000,4.000000,4.000000,4.000000,4.000000,4.000000,100.000000,48.000000,0.000000,0.498043,0.500000,0.468750,-0.531250,1.031266,0.000000,-0.093751,-76.563667,-38.281834,7.738431
1594579372.697529,97.000000,0.000000,4240.000000,4258.461426,4098.974121,3981.538574,4178.974121,450.000000,4.000000,,,,0.000000,4.000000,4.000000,4.000000,4.000000,4.000000,100.000000,,,,,,,,,,,,
1594579372.705431,98.000000,0.000000,4267.692383,4274.871582,4121.538574,4002.564209,4206.666504,450.000000,4.000000,,,,0.000000,4.000000,4.000000,4.000000,4.000000,4.000000,100.000000,49.000000,0.000000,0.498043,0.500000,0.468750,-0.531250,1.031266,0.000000,-0.093751,-76.563667,-38.281834,6.964588
1594579372.713332,99.000000,0.000000,4251.794922,4231.794922,4103.077148,4010.769287,4182.563965,1023.000000,4.000000,,,,0.000000,4.000000,4.000000,4.000000,4.000000,4.000000,100.000000,,,,,,,,,,,,
1594579372.721234,100.000000,0.000000,4221.025879,4205.128418,4070.769287,3980.000000,4151.794922,450.000000,4.000000,,,,0.000000,4.000000,4.000000,4.000000,4.000000,4.000000,100.000000,50.000000,0.000000,0.498043,0.500000,0.468750,-0.531250,1.031266,0.000000,-0.093751,-76.563667,-38.281834,10.096313
1594579372.728936,101.000000,0.000000,4231.794922,4213.333496,4084.102539,3968.205078,4167.179688,450.000000,4.000000,,,,0.000000,4.000000,4.000000,4.000000,4.000000,4.000000,100.000000,,,,,,,,,,,,
1594579372.736638,102.000000,0.000000,4233.846191,4201.025879,4097.436035,3987.692383,4176.410156,450.000000,4.000000,,,,0.000000,4.000000,4.000000,4.000000,4.000000,4.000000,100.000000,51.000000,0.000000,0.498043,0.500000,0.468750,-0.531250,1.031266,0.000000,-0.093751,-76.563667,-38.281834,9.086681
1594579372.744339,103.000000,0.000000,4236.922852,4203.077148,4104.102539,4012.820557,4180.000000,1023.000000,4.000000,,,,0.000000,4.000000,4.000000,4.000000,4.000000,4.000000,100.000000,,,,,,,,,,,,
1594579372.752041,104.000000,0.000000,4248.717773,4221.538574,4105.641113,3984.615479,4174.358887,450.000000,4.000000,,,,0.000000,4.000000,4.000000,4.000000,4.000000,4.000000,100.000000,52.000000,0.000000,0.498043,0.500000,0.468750,-0.531250,1.031266,0.000000,-0.062501,-76.563667,-38.281834,8.178013
1594579372.759943,105.000000,0.000000,4229.230957,4227.692383,4087.179443,3952.820557,4152.820313,450.000000,4.000000,,,,0.000000,4.000000,4.000000,4.000000,4.000000,4.000000,100.000000,,,,,,,,,,,,
1594579372.767645,106.000000,0.000000,4230.769043,4248.205078,4091.281982,4002.051270,4164.102539,450.000000,4.000000,,,,0.000000,4.000000,4.000000,4.000000,4.000000,4.000000,100.000000,53.000000,0.000000,0.498043,0.500000,0.468750,-0.531250,1.031266,0.000000,-0.093751,-76.563667,-38.281834,7.360212
1594579372.775347,107.000000,0.000000,4248.205078,4240.000000,4097.436035,4017.435791,4172.820313,1023.000000,4.000000,,,,0.000000,4.000000,4.000000,4.000000,4.000000,4.000000,100.000000,,,,,,,,,,,,
1594579372.783049,108.000000,0.000000,4232.307617,4196.922852,4075.897461,3990.256348,4155.897461,450.000000,4.000000,,,,0.000000,4.000000,4.000000,4.000000,4.000000,4.000000,100.000000,54.000000,0.000000,0.498043,0.500000,0.468750,-0.531250,1.000015,0.000000,-0.093751,-76.563667,-38.281834,6.624190
1594579372.790950,109.000000,0.000000,4218.974121,4203.077148,4068.718018,4015.384521,4156.410156,450.000000,4.000000,,,,0.000000,4.000000,4.000000,4.000000,4.000000,4.000000,100.000000,,,,,,,,,,,,
1594579372.798652,110.000000,0.000000,4237.948730,4233.846191,4088.205078,4002.051270,4171.794922,450.000000,4.000000,,,,0.000000,4.000000,4.000000,4.000000,4.000000,4.000000,100.000000,55.000000,0.000000,0.498043,0.500000,0.468750,-0.531250,1.031266,0.000000,-0.093751,-76.563667,-38.281834,9.789955
1594579372.806554,111.000000,0.000000,4263.077148,4237.948730,4114.871582,3968.718018,4190.769043,1023.000000,4.000000,,,,0.000000,4.000000,4.000000,4.000000,4.000000,4.000000,100.000000,,,,,,,,,,,,
1594579372.814256,112.000000,0.000000,4254.358887,4225.641113,4102.051270,4006.153809,4186.153809,450.000000,4.000000,,,,0.000000,4.000000,4.000000,4.000000,4.000000,4.000000,100.000000,56.000000,0.000000,0.498043,0.500000,0.468750,-0.531250,1.031266,0.000000,-0.093751,-76.563667,-38.281834,12.639143
1594579372.821958,113.000000,0.000000,4241.538574,4217.436035,4077.435791,4047.179443,4172.820313,450.000000,4.000000,,,,0.000000,4.000000,4.000000,4.000000,4.000000,4.000000,100.000000,,,,,,,,,,,,
1594579372.829660,114.000000,0.000000,4262.051270,4225.641113,4096.410156,4040.512939,4190.256348,450.000000,4.000000,,,,0.000000,4.000000,4.000000,4.000000,4.000000,4.000000,100.000000,57.000000,0.000000,0.498043,0.500000,0.468750,-0.531250,1.000015,0.000000,-0.093751,-76.563667,-38.281834,11.375229
1594579372.837562,115.000000,0.000000,4263.077148,4217.436035,4104.615234,4011.281982,4186.666504,1023.000000,4.000000,,,,0.000000,4.000000,4.000000,4.000000,4.000000,4.000000,100.000000,,,,,,,,,,,,
1594579372.845464,116.000000,0.000000,4240.512695,4209.230957,4091.281982,3993.846191,4162.051270,450.000000,4.000000,,,,0.000000,4.000000,4.000000,4.000000,4.000000,4.000000,100.000000,58.000000,0.000000,0.498043,0.500000,0.468750,-0.531250,1.031266,0.000000,-0.093751,-76.563667,-38.281834,14.065889
1594579372.853365,117.000000,0.000000,4231.794922,4209.230957,4097.436035,3991.281982,4160.000000,450.000000,4.000000,,,,0.000000,4.000000,4.000000,4.000000,4.000000,4.000000,100.000000,,,,,,,,,,,,
1594579372.861067,118.000000,0.000000,4235.897461,4198.974121,4099.487305,3966.666748,4161.538574,450.000000,4.000000,,,,0.000000,4.000000,4.000000,4.000000,4.000000,4.000000,100.000000,59.000000,0.000000,0.498043,0.500000,0.468750,-0.531250,1.031266,0.000000,-0.093751,-76.563667,-38.281834,16.487484
1594579372.868969,119.000000,0.000000,4241.538574,4196.922852,4089.230713,3943.589844,4160.512695,1023.000000,4.000000,,,,0.000000,4.000000,4.000000,4.000000,4.000000,4.000000,100.000000,,,,,,,,,,,,
1594579372.876671,120.000000,0.000000,4230.769043,4190.769043,4086.666748,3989.743652,4162.051270,450.000000,4.000000,,,,0.000000,4.000000,4.000000,4.000000,4.000000,4.000000,100.000000,60.000000,0.000000,0.498043,0.500000,0.468750,-0.531250,1.031266,0.000000,-0.093751,-76.563667,-38.281834,18.666918
1594579372.884572,121.000000,0.000000,4231.282227,4192.820313,4100.512695,4054.871826,4173.846191,450.000000,4.000000,,,,0.000000,4.000000,4.000000,4.000000,4.000000,4.000000,100.000000,,,,,,,,,,,,
1594579372.892274,122.000000,0.000000,4238.461426,4217.436035,4102.563965,4013.333252,4180.512695,450.000000,4.000000,,,,0.000000,4.000000,4.000000,4.000000,4.000000,4.000000,100.000000,61.000000,0.000000,0.498043,0.500000,0.468750,-0.531250,1.031266,0.000000,-0.093751,-76.563667,-38.281834,16.800226
1594579372.900176,123.000000,0.000000,4221.538574,4217.436035,4080.512939,3955.897461,4164.615234,1023.000000,4.000000,,,,0.000000,4.000000,4.000000,4.000000,4.000000,4.000000,100.000000,,,,,,,,,,,,
1594579372.908078,124.000000,0.000000,4213.333496,4188.717773,4070.769287,3983.589844,4154.871582,450.000000,4.000000,,,,0.000000,4.000000,4.000000,4.000000,4.000000,4.000000,100.000000,62.000000,0.000000,0.498043,0.500000,0.468750,-0.531250,1.031266,0.000000,-0.093751,-76.563667,-38.281834,18.948387
1594579372.915980,125.000000,0.000000,4219.487305,4172.307617,4072.307617,3968.718018,4153.333496,450.000000,4.000000,,,,0.000000,4.000000,4.000000,4.000000,4.000000,4.000000,100.000000,,,,,,,,,,,,
1594579372.923781,126.000000,0.000000,4231.282227,4207.179688,4085.641113,3936.410156,4168.717773,450.000000,4.000000,,,,0.000000,4.000000,4.000000,4.000000,4.000000,4.000000,100.000000,63.000000,0.000000,0.498043,0.500000,0.468750,-0.531250,1.031266,0.000000,-0.062501,-76.563667,-38.281834,17.053549
1594579372.931483,127.000000,0.000000,4237.436035,4235.897461,4094.358887,3990.769287,4186.666504,242.000000,4.000000,,,,0.000000,4.000000,4.000000,4.000000,4.000000,4.000000,100.000000,,,,,,,,,,,,
1594579372.939185,0.000000,0.000000,4214.871582,4207.179688,4067.179443,4020.512939,4164.615234,450.000000,4.000000,,,,0.000000,4.000000,4.000000,4.000000,4.000000,4.000000,100.000000,0.000000,0.000000,0.498043,0.500000,0.468750,-0.531250,1.031266,-0.031250,-0.093751,-76.563667,-38.281834,15.348194
1594579372.947087,1.000000,0.000000,4206.153809,4203.077148,4057.948730,3987.179443,4153.846191,450.000000,4.000000,,,,0.000000,4.000000,4.000000,4.000000,4.000000,4.000000,100.000000,,,,,,,,,,,,
1594579372.954789,2.000000,0.000000,4214.871582,4229.743652,4071.794922,3966.666748,4174.358887,1023.000000,4.000000,,,,0.000000,4.000000,4.000000,4.000000,4.000000,4.000000,100.000000,1.000000,0.000000,0.498043,0.500000,0.468750,-0.531250,1.062516,0.000000,-0.062501,-76.563667,-38.281834,13.813375
1594579372.962691,3.000000,0.000000,4210.256348,4213.333496,4071.281982,3974.358887,4175.897461,450.000000,4.000000,,,,0.000000,4.000000,4.000000,4.000000,4.000000,4.000000,100.000000,,,,,,,,,,,,
1594579372.970393,4.000000,0.000000,4208.717773,4186.666504,4068.718018,3989.230713,4163.589844,1023.000000,4.000000,,,,0.000000,4.000000,4.000000,4.000000,4.000000,4.000000,100.000000,2.000000,0.000000,0.498043,0.500000,0.468750,-0.531250,1.031266,0.000000,-0.062501,-76.563667,-38.281834,12.432037
1594579372.978294,5.000000,0.000000,4210.256348,4182.563965,4073.333252,3955.897461,4155.384766,450.000000,4.000000,,,,0.000000,4.000000,4.000000,4.000000,4.000000,4.000000,100.000000,,,,,,,,,,,,
1594579372.985997,6.000000,0.000000,4223.077148,4203.077148,4091.281982,3934.871826,4162.051270,1023.000000,4.000000,,,,0.000000,4.000000,4.000000,4.000000,4.000000,4.000000,100.000000,3.000000,0.000000,0.498043,0.500000,0.468750,-0.531250,1.031266,0.000000,-0.062501,-76.563667,-38.281834,11.188833
1594579372.993898,7.000000,0.000000,4235.384766,4213.333496,4093.333252,4003.589844,4177.436035,450.000000,4.000000,,,,0.000000,4.000000,4.000000,4.000000,4.000000,4.000000,100.000000,,,,,,,,,,,,
1594579373.001600,8.000000,0.000000,4228.205078,4198.974121,4078.461426,4034.358887,4178.974121,450.000000,4.000000,,,,0.000000,4.000000,4.000000,4.000000,4.000000,4.000000,100.000000,4.000000,0.000000,0.498043,0.500000,0.468750,-0.531250,1.031266,0.000000,-0.093751,-76.563667,-38.281834,10.069950
1594579373.009502,9.000000,0.000000,4234.358887,4201.025879,4093.846191,3985.641113,4188.717773,1023.000000,4.000000,,,,0.000000,4.000000,4.000000,4.000000,4.000000,4.000000,100.000000,,,,,,,,,,,,
1594579373.017204,10.000000,0.000000,4255.897461,4227.692383,4118.974121,3992.307617,4210.256348,450.000000,4.000000,,,,0.000000,4.000000,4.000000,4.000000,4.000000,4.000000,100.000000,5.000000,0.000000,0.498043,0.500000,0.468750,-0.531250,1.031266,0.000000,-0.062501,-76.563667,-38.281834,9.062955
1594579373.025106,11.000000,0.000000,4276.922852,4246.153809,4131.282227,4031.794922,4224.102539,1023.000000,4.000000,,,,0.000000,4.000000,4.000000,4.000000,4.000000,4.000000,100.000000,,,,,,,,,,,,
1594579373.032808,12.000000,0.000000,4269.743652,4229.743652,4118.461426,3986.153809,4209.743652,450.000000,4.000000,,,,0.000000,4.000000,4.000000,4.000000,4.000000,4.000000,100.000000,6.000000,0.000000,0.498043,0.500000,0.468750,-0.531250,1.031266,0.000000,-0.062501,-76.563667,-38.281834,8.156659
1594579373.040709,13.000000,0.000000,4246.153809,4203.077148,4100.512695,3961.538574,4185.128418,450.000000,4.000000,,,,0.000000,4.000000,4.000000,4.000000,4.000000,4.000000,100.000000,,,,,,,,,,,,
1594579373.048411,14.000000,0.000000,4256.922852,4221.538574,4112.820313,4030.769287,4187.692383,450.000000,4.000000,,,,0.000000,4.000000,4.000000,4.000000,4.000000,4.000000,100.000000,7.000000,0.000000,0.498043,0.500000,0.468750,-0.531250,1.031266,0.000000,-0.093751,-76.563667,-38.281834,7.340993
1594579373.056313,15.000000,0.000000,4258.974121,4240.000000,4110.256348,4022.051270,4186.153809,1023.000000,4.000000,,,,0.000000,4.000000,4.000000,4.000000,4.000000,4.000000,100.000000,,,,,,,,,,,,
1594579373.064015,16.000000,0.000000,4244.615234,4231.794922,4094.871826,3963.589844,4177.436035,0.000000,4.000000,,,,0.000000,4.000000,4.000000,4.000000,4.000000,4.000000,100.000000,8.000000,0.000000,0.498043,0.500000,0.468750,-0.531250,1.031266,0.000000,-0.062501,-76.563667,-38.281834,6.606894
1594579373.071916,17.000000,0.000000,4252.307617,4221.538574,4103.077148,3973.846191,4176.922852,0.000000,4.000000,,,,0.000000,4.000000,4.000000,4.000000,4.000000,4.000000,100.000000,,,,,,,,,,,,
1594579373.079618,18.000000,0.000000,4247.692383,4205.128418,4093.333252,3982.564209,4160.512695,0.000000,4.000000,,,,0.000000,4.000000,4.000000,4.000000,4.000000,4.000000,100.000000,9.000000,0.000000,0.498043,0.500000,0.468750,-0.531250,1.031266,0.000000,-0.093751,-76.563667,-38.281834,5.946205
1594579373.087520,19.000000,0.000000,4238.974121,4201.025879,4080.512939,3971.794922,4150.769043,0.000000,4.000000,,,,0.000000,4.000000,4.000000,4.000000,4.000000,4.000000,100.000000,,,,,,,,,,,,
1594579373.095222,20.000000,0.000000,4250.769043,4225.641113,4096.410156,3991.794922,4156.922852,0.000000,4.000000,,,,0.000000,4.000000,4.000000,4.000000,4.000000,4.000000,100.000000,10.000000,0.000000,0.498043,0.500000,0.468750,-0.531250,1.031266,0.000000,-0.062501,-76.563667,-38.281834,5.351584
1594579373.102924,21.000000,0.000000,4261.538574,4258.461426,4105.641113,4002.564209,4164.615234,0.000000,4.000000,,,,0.000000,4.000000,4.000000,4.000000,4.000000,4.000000,100.000000,,,,,,,,,,,,
1594579373.110626,22.000000,0.000000,4243.077148,4258.461426,4088.718018,3967.179443,4157.948730,0.000000,4.000000,,,,0.000000,4.000000,4.000000,4.000000,4.000000,4.000000,100.000000,11.000000,0.000000,0.498043,0.500000,0.468750,-0.531250,1.031266,0.000000,-0.093751,-76.563667,-38.281834,4.816426
1594579373.118527,23.000000,0.000000,4217.948730,4227.692383,4077.948730,3960.000000,4133.846191,0.000000,4.000000,,,,0.000000,4.000000,4.000000,4.000000,4.000000,4.000000,100.000000,,,,,,,,,,,,
1594579373.126429,24.000000,0.000000,4226.666504,4209.230957,4085.641113,4013.333252,4134.871582,0.000000,4.000000,,,,0.000000,4.000000,4.000000,4.000000,4.000000,4.000000,100.000000,12.000000,0.000000,0.498043,0.500000,0.468750,-0.531250,1.031266,0.000000,-0.093751,-76.563667,-38.281834,4.334783
1594579373.134131,25.000000,0.000000,4226.153809,4194.871582,4067.692383,3999.487061,4133.846191,0.000000,4.000000,,,,0.000000,4.000000,4.000000,4.000000,4.000000,4.000000,100.000000,,,,,,,,,,,,
1594579373.141833,26.000000,0.000000,4212.820313,4184.615234,4052.307617,3937.435791,4115.384766,0.000000,4.000000,,,,0.000000,4.000000,4.000000,4.000000,4.000000,4.000000,100.000000,13.000000,0.000000,0.498043,0.500000,0.468750,-0.531250,1.000015,0.000000,-0.093751,-76.563667,-38.281834,3.901305
1594579373.149534,27.000000,0.000000,4238.974121,4211.282227,4083.589844,3965.641113,4135.897461,0.000000,4.000000,,,,0.000000,4.000000,4.000000,4.000000,4.000000,4.000000,100.000000,,,,,,,,,,,,
1594579373.157236,28.000000,0.000000,4240.512695,4207.179688,4077.435791,3977.948730,4142.051270,0.000000,4.000000,,,,0.000000,4.000000,4.000000,4.000000,4.000000,4.000000,100.000000,14.000000,0.000000,0.498043,0.500000,0.468750,-0.531250,1.031266,0.000000,-0.062501,-76.563667,-38.281834,3.511174
1594579373.165138,29.000000,0.000000,4234.358887,4188.717773,4071.794922,3948.718018,4140.512695,0.000000,4.000000,,,,0.000000,4.000000,4.000000,4.000000,4.000000,4.000000,100.000000,,,,,,,,,,,,
1594579373.172840,30.000000,0.000000,4264.102539,4227.692383,4114.358887,3977.948730,4166.153809,0.000000,4.000000,,,,0.000000,4.000000,4.000000,4.000000,4.000000,4.000000,100.000000,15.000000,0.000000,0.498043,0.500000,0.468750,-0.531250,1.031266,0.000000,-0.062501,-76.563667,-38.281834,3.160057
1594579373.180742,31.000000,0.000000,4240.000000,4240.000000,4088.718018,3969.743652,4144.102539,0.000000,4.000000,,,,0.000000,4.000000,4.000000,4.000000,4.000000,4.000000,100.000000,,,,,,,,,,,,
1594579373.188444,32.000000,0.000000,4217.948730,4227.692383,4058.974365,3942.051270,4127.179688,0.000000,4.000000,,,,0.000000,4.000000,4.000000,4.000000,4.000000,4.000000,100.000000,16.000000,0.000000,0.498043,0.500000,0.468750,-0.531250,1.031266,0.000000,-0.093751,-76.563667,-38.281834,2.844051
1594579373.196346,33.000000,0.000000,4236.922852,4223.589844,4084.615479,3974.871826,4140.000000,0.000000,4.000000,,,,0.000000,4.000000,4.000000,4.000000,4.000000,4.000000,100.000000,,,,,,,,,,,,
1594579373.204048,34.000000,0.000000,4243.077148,4221.538574,4089.230713,4006.153809,4138.461426,0.000000,4.000000,,,,0.000000,4.000000,4.000000,4.000000,4.000000,4.000000,100.000000,17.000000,0.000000,0.498043,0.500000,0.468750,-0.531250,1.031266,0.000000,-0.062501,-76.563667,-38.281834,2.559646
1594579373.211950,35.000000,0.000000,4252.307617,4242.051270,4086.666748,4008.205078,4148.717773,0.000000,4.000000,,,,0.000000,4.000000,4.000000,4.000000,4.000000,4.000000,100.000000,,,,,,,,,,,,
1594579373.219851,36.000000,0.000000,4250.256348,4244.102539,4090.256348,3986.666748,4154.871582,0.000000,4.000000,,,,0.000000,4.000000,4.000000,4.000000,4.000000,4.000000,100.000000,18.000000,0.000000,0.498043,0.500000,0.468750,-0.531250,1.031266,0.000000,-0.093751,-76.563667,-38.281834,2.303682
1594579373.227753,37.000000,0.000000,4243.589844,4227.692383,4097.436035,3977.435791,4157.948730,0.000000,4.000000,,,,0.000000,4.000000,4.000000,4.000000,4.000000,4.000000,100.000000,,,,,,,,,,,,
1594579373.235455,38.000000,0.000000,4235.897461,4217.436035,4082.051270,3977.948730,4157.948730,0.000000,4.000000,,,,0.000000,4.000000,4.000000,4.000000,4.000000,4.000000,100.000000,19.000000,0.000000,0.498043,0.500000,0.468750,-0.531250,1.031266,0.000000,-0.093751,-76.563667,-38.281834,2.073313
1594579373.243357,39.000000,0.000000,4218.461426,4207.179688,4048.205078,3961.538574,4146.153809,0.000000,4.000000,,,,0.000000,4.000000,4.000000,4.000000,4.000000,4.000000,100.000000,,,,,,,,,,,,
1594579373.251058,40.000000,0.000000,4205.641113,4192.820313,4030.769287,3958.461426,4128.717773,0.000000,4.000000,,,,0.000000,4.000000,4.000000,4.000000,4.000000,4.000000,100.000000,20.000000,0.000000,0.498043,0.500000,0.468750,-0.531250,1.000015,0.000000,-0.062501,-76.563667,-38.281834,1.865982
1594579373.258960,41.000000,0.000000,4185.128418,4170.256348,4014.871826,3940.000000,4095.897461,0.000000,4.000000,,,,0.000000,4.000000,4.000000,4.000000,4.000000,4.000000,100.000000,,,,,,,,,,,,
1594579373.266662,42.000000,0.000000,4194.358887,4190.769043,4029.230713,3916.923096,4100.512695,0.000000,4.000000,,,,0.000000,4.000000,4.000000,4.000000,4.000000,4.000000,100.000000,21.000000,0.000000,0.498043,0.500000,0.468750,-0.531250,1.031266,0.000000,-0.062501,-76.563667,-38.281834,1.679384
1594579373.274564,43.000000,0.000000,4229.230957,4231.794922,4067.179443,3945.641113,4144.102539,0.000000,4.000000,,,,0.000000,4.000000,4.000000,4.000000,4.000000,4.000000,100.000000,,,,,,,,,,,,
1594579373.282265,44.000000,0.000000,4221.025879,4217.436035,4065.641113,3979.487061,4146.153809,0.000000,4.000000,,,,0.000000,4.000000,4.000000,4.000000,4.000000,4.000000,100.000000,22.000000,0.000000,0.498043,0.500000,0.468750,-0.531250,1.031266,0.000000,-0.062501,-76.563667,-38.281834,1.511446
1594579373.290167,45.000000,0.000000,4193.846191,4184.615234,4044.615479,3987.179443,4124.102539,0.000000,4.000000,,,,0.000000,4.000000,4.000000,4.000000,4.000000,4.000000,100.000000,,,,,,,,,,,,
1594579373.298069,46.000000,0.000000,4194.871582,4190.769043,4045.128174,3975.384521,4133.333496,0.000000,4.000000,,,,0.000000,4.000000,4.000000,4.000000,4.000000,4.000000,100.000000,23.000000,0.000000,0.498043,0.500000,0.468750,-0.531250,1.031266,0.000000,-0.062501,-76.563667,-38.281834,1.360301
1594579373.305971,47.000000,0.000000,4206.666504,4207.179688,4053.333252,3956.410156,4144.615234,0.000000,4.000000,,,,0.000000,4.000000,4.000000,4.000000,4.000000,4.000000,100.000000,,,,,,,,,,,,
1594579373.313873,48.000000,0.000000,4201.025879,4196.922852,4044.615479,3937.435791,4124.102539,0.000000,4.000000,,,,0.000000,4.000000,4.000000,4.000000,4.000000,4.000000,100.000000,24.000000,0.000000,0.498043,0.500000,0.468750,-0.531250,1.031266,0.000000,-0.062501,-76.563667,-38.281834,1.224271
1594579373.321774,49.000000,0.000000,4192.820313,4188.717773,4036.410156,3927.179443,4110.256348,0.000000,4.000000,,,,0.000000,4.000000,4.000000,4.000000,4.000000,4.000000,100.000000,,,,,,,,,,,,
1594579373.329476,50.000000,0.000000,4216.922852,4221.538574,4060.000000,3947.692383,4135.384766,0.000000,4.000000,,,,0.000000,4.000000,4.000000,4.000000,4.000000,4.000000,100.000000,25.000000,0.000000,0.498043,0.500000,0.468750,-0.531250,1.031266,0.000000,-0.062501,-76.563667,-38.281834,1.101844
1594579373.337178,51.000000,0.000000,4240.512695,4237.948730,4088.718018,3989.230713,4156.922852,0.000000,4.000000,,,,0.000000,4.000000,4.000000,4.000000,4.000000,4.000000,100.000000,,,,,,,,,,,,
1594579373.344880,52.000000,0.000000,4236.410156,4225.641113,4092.820557,4016.410156,4153.846191,0.000000,4.000000,,,,0.000000,4.000000,4.000000,4.000000,4.000000,4.000000,100.000000,26.000000,0.000000,0.498043,0.500000,0.468750,-0.531250,1.031266,0.000000,-0.062501,-76.563667,-38.281834,0.991659
1594579373.352581,53.000000,0.000000,4220.000000,4223.589844,4070.769287,3987.179443,4134.871582,0.000000,4.000000,,,,0.000000,4.000000,4.000000,4.000000,4.000000,4.000000,100.000000,,,,,,,,,,,,
1594579373.360283,54.000000,0.000000,4214.871582,4221.538574,4053.846191,3943.589844,4117.948730,0.000000,4.000000,,,,0.000000,4.000000,4.000000,4.000000,4.000000,4.000000,100.000000,27.000000,0.000000,0.498043,0.500000,0.468750,-0.531250,1.031266,0.000000,-0.093751,-76.563667,-38.281834,0.892493
1594579373.368185,55.000000,0.000000,4227.179688,4221.538574,4072.307617,3964.615479,4129.743652,0.000000,4.000000,,,,0.000000,4.000000,4.000000,4.000000,4.000000,4.000000,100.000000,,,,,,,,,,,,
1594579373.376087,56.000000,0.000000,4210.256348,4229.743652,4064.102539,3988.205078,4127.692383,0.000000,4.000000,,,,0.000000,4.000000,4.000000,4.000000,4.000000,4.000000,100.000000,28.000000,0.000000,0.498043,0.500000,0.468750,-0.531250,1.031266,0.000000,-0.062501,-76.563667,-38.281834,0.803244
1594579373.383989,57.000000,0.000000,4197.436035,4237.948730,4038.974365,3957.948730,4117.948730,0.000000,4.000000,,,,0.000000,4.000000,4.000000,4.000000,4.000000,4.000000,100.000000,,,,,,,,,,,,
1594579373.391691,58.000000,0.000000,4223.077148,4225.641113,4054.871826,3931.281982,4134.358887,0.000000,4.000000,,,,0.000000,4.000000,4.000000,4.000000,4.000000,4.000000,100.000000,29.000000,0.000000,0.498043,0.500000,0.468750,-0.531250,1.031266,0.000000,-0.093751,-76.563667,-38.281834,0.722920
1594579373.399594,59.000000,0.000000,4218.461426,4201.025879,4056.923096,3943.076904,4129.230957,0.000000,4.000000,,,,0.000000,4.000000,4.000000,4.000000,4.000000,4.000000,100.000000,,,,,,,,,,,,
1594579373.407496,60.000000,0.000000,4206.153809,4213.333496,4043.589844,3970.769287,4125.128418,0.000000,4.000000,,,,0.000000,4.000000,4.000000,4.000000,4.000000,4.000000,100.000000,30.000000,0.000000,0.498043,0.500000,0.468750,-0.531250,1.031266,0.000000,-0.062501,-76.563667,-38.281834,0.650628
1594579373.415397,61.000000,0.000000,4222.051270,4227.692383,4051.794922,3974.871826,4145.641113,0.000000,4.000000,,,,0.000000,4.000000,4.000000,4.000000,4.000000,4.000000,100.000000,,,,,,,,,,,,
1594579373.423299,62.000000,0.000000,4228.717773,4194.871582,4054.358887,3951.281982,4150.256348,0.000000,4.000000,,,,0.000000,4.000000,4.000000,4.000000,4.000000,4.000000,100.000000,31.000000,0.000000,0.498043,0.500000,0.468750,-0.531250,1.031266,0.000000,-0.062501,-76.563667,-38.281834,0.585565
1594579373.431201,63.000000,0.000000,4213.333496,4172.307617,4040.000000,3944.615479,4134.871582,0.000000,4.000000,,,,0.000000,4.000000,4.000000,4.000000,4.000000,4.000000,100.000000,,,,,,,,,,,,
1594579373.439102,64.000000,0.000000,4199.487305,4176.410156,4031.281982,3951.794922,4124.102539,450.000000,4.000000,,,,0.000000,4.000000,4.000000,4.000000,4.000000,4.000000,100.000000,32.000000,0.000000,0.498043,0.500000,0.468750,-0.531250,1.031266,0.000000,-0.093751,-76.563667,-38.281834,0.527008
1594579373.447004,65.000000,0.000000,4211.282227,4186.666504,4047.179443,3949.743652,4136.922852,450.000000,4.000000,,,,0.000000,4.000000,4.000000,4.000000,4.000000,4.000000,100.000000,,,,,,,,,,,,
1594579373.454706,66.000000,0.000000,4209.230957,4176.410156,4042.051270,3931.281982,4125.641113,1023.000000,4.000000,,,,0.000000,4.000000,4.000000,4.000000,4.000000,4.000000,100.000000,33.000000,0.000000,0.498043,0.500000,0.468750,-0.531250,1.031266,0.000000,-0.062501,-76.563667,-38.281834,0.474308
1594579373.462508,67.000000,0.000000,4173.846191,4139.487305,4005.128174,3890.769287,4080.000000,450.000000,4.000000,,,,0.000000,4.000000,4.000000,4.000000,4.000000,4.000000,100.000000,,,,,,,,,,,,
1594579373.470210,68.000000,0.000000,4153.333496,4123.077148,3990.769287,3867.692383,4068.718018,1023.000000,4.000000,,,,0.000000,4.000000,4.000000,4.000000,4.000000,4.000000,100.000000,34.000000,0.000000,0.498043,0.500000,0.468750,-0.531250,1.031266,0.000000,-0.093751,-76.563667,-38.281834,0.426877
1594579373.478111,69.000000,0.000000,4151.794922,4133.333496,3992.307617,3888.718018,4075.384521,450.000000,4.000000,,,,0.000000,4.000000,4.000000,4.000000,4.000000,4.000000,100.000000,,,,,,,,,,,,
1594579373.486013,70.000000,0.000000,4157.948730,4145.641113,3993.846191,3904.615479,4077.435791,1023.000000,4.000000,,,,0.000000,4.000000,4.000000,4.000000,4.000000,4.000000,100.000000,35.000000,0.000000,0.498043,0.500000,0.468750,-0.531250,1.031266,0.031250,-0.093751,-76.563667,-38.281834,4.212373
1594579373.493915,71.000000,0.000000,4158.461426,4139.487305,3992.820557,3871.281982,4075.897461,450.000000,4.000000,,,,0.000000,4.000000,4.000000,4.000000,4.000000,4.000000,100.000000,,,,,,,,,,,,
1594579373.501717,72.000000,0.000000,4154.358887,4137.436035,3997.948730,3862.051270,4070.256348,450.000000,4.000000,,,,0.000000,4.000000,4.000000,4.000000,4.000000,4.000000,100.000000,36.000000,0.000000,0.498043,0.500000,0.468750,-0.531250,1.031266,0.031250,-0.093751,-76.563667,-38.281834,3.791135
1594579373.509419,73.000000,0.000000,4189.743652,4182.563965,4036.923096,3941.538574,4103.589844,1023.000000,4.000000,,,,0.000000,4.000000,4.000000,4.000000,4.000000,4.000000,100.000000,,,,,,,,,,,,
1594579373.517121,74.000000,0.000000,4236.922852,4237.948730,4072.307617,3962.051270,4150.256348,450.000000,4.000000,,,,0.000000,4.000000,4.000000,4.000000,4.000000,4.000000,100.000000,37.000000,0.000000,0.498043,0.500000,0.468750,-0.531250,1.031266,0.000000,-0.093751,-76.563667,-38.281834,3.412022
1594579373.525022,75.000000,0.000000,4252.820313,4258.461426,4078.974365,3931.794922,4160.000000,1023.000000,4.000000,,,,0.000000,4.000000,4.000000,4.000000,4.000000,4.000000,100.000000,,,,,,,,,,,,
1594579373.532724,76.000000,0.000000,4262.563965,4268.717773,4095.897461,4016.410156,4165.641113,450.000000,4.000000,,,,0.000000,4.000000,4.000000,4.000000,4.000000,4.000000,100.000000,38.000000,0.000000,0.498043,0.500000,0.468750,-0.531250,1.062516,0.031250,-0.093751,-76.563667,-38.281834,3.070820
1594579373.540426,77.000000,0.000000,4265.641113,4272.820313,4118.461426,4037.948730,4182.051270,450.000000,4.000000,,,,0.000000,4.000000,4.000000,4.000000,4.000000,4.000000,100.000000,,,,,,,,,,,,
1594579373.548128,78.000000,0.000000,4265.128418,4283.077148,4124.102539,3937.948730,4184.615234,450.000000,4.000000,,,,0.000000,4.000000,4.000000,4.000000,4.000000,4.000000,100.000000,39.000000,0.000000,0.498043,0.500000,0.468750,-0.531250,1.031266,0.031250,-0.062501,-76.563667,-38.281834,2.763738
1594579373.555829,79.000000,0.000000,4264.102539,4291.282227,4111.794922,3972.307617,4169.230957,1023.000000,4.000000,,,,0.000000,4.000000,4.000000,4.000000,4.000000,4.000000,100.000000,,,,,,,,,,,,
1594579373.563531,80.000000,0.000000,4267.692383,4285.128418,4106.666504,4080.512939,4163.077148,450.000000,4.000000,,,,0.000000,4.000000,4.000000,4.000000,4.000000,4.000000,100.000000,40.000000,0.000000,0.498043,0.500000,0.468750,-0.531250,1.031266,0.000000,-0.062501,-76.563667,-38.281834,2.487364
1594579373.571433,81.000000,0.000000,4292.820313,4297.436035,4127.692383,4065.641113,4186.666504,450.000000,4.000000,,,,0.000000,4.000000,4.000000,4.000000,4.000000,4.000000,100.000000,,,,,,,,,,,,
1594579373.579135,82.000000,0.000000,4301.538574,4313.846191,4145.641113,4027.692383,4207.179688,450.000000,4.000000,,,,0.000000,4.000000,4.000000,4.000000,4.000000,4.000000,100.000000,41.000000,0.000000,0.498043,0.500000,0.468750,-0.531250,1.031266,0.000000,-0.062501,-76.563667,-38.281834,2.238627
1594579373.587037,83.000000,0.000000,4289.230957,4305.641113,4151.794922,4049.230713,4205.641113,1023.000000,4.000000,,,,0.000000,4.000000,4.000000,4.000000,4.000000,4.000000,100.000000,,,,,,,,,,,,
1594579373.594739,84.000000,0.000000,4281.025879,4285.128418,4144.102539,4025.641113,4191.794922,450.000000,4.000000,,,,0.000000,4.000000,4.000000,4.000000,4.000000,4.000000,100.000000,42.000000,0.000000,0.498043,0.500000,0.468750,-0.531250,1.031266,0.000000,-0.062501,-76.563667,-38.281834,2.014765
1594579373.602641,85.000000,0.000000,4287.179688,4289.230957,4141.538574,3997.948730,4190.256348,450.000000,4.000000,,,,0.000000,4.000000,4.000000,4.000000,4.000000,4.000000,100.000000,,,,,,,,,,,,
1594579373.610543,86.000000,0.000000,4313.846191,4324.102539,4169.230957,4029.743652,4221.538574,450.000000,4.000000,,,,0.000000,4.000000,4.000000,4.000000,4.000000,4.000000,100.000000,43.000000,0.000000,0.498043,0.500000,0.468750,-0.531250,1.031266,0.000000,-0.062501,-76.563667,-38.281834,1.813288
1594579373.618444,87.000000,0.000000,4315.384766,4322.051270,4167.692383,4048.205078,4232.820313,1023.000000,4.000000,,,,0.000000,4.000000,4.000000,4.000000,4.000000,4.000000,100.000000,,,,,,,,,,,,
1594579373.626146,88.000000,0.000000,4298.461426,4301.538574,4147.179688,4057.948730,4222.051270,450.000000,4.000000,,,,0.000000,4.000000,4.000000,4.000000,4.000000,4.000000,100.000000,44.000000,0.000000,0.498043,0.500000,0.468750,-0.531250,1.031266,0.000000,-0.062501,-76.563667,-38.281834,1.631959
1594579373.634048,89.000000,0.000000,4307.179688,4332.307617,4161.025879,4058.461426,4228.717773,450.000000,4.000000,,,,0.000000,4.000000,4.000000,4.000000,4.000000,4.000000,100.000000,,,,,,,,,,,,
1594579373.641950,90.000000,0.000000,4312.820313,4361.025879,4165.128418,4034.871826,4217.948730,450.000000,4.000000,,,,0.000000,4.000000,4.000000,4.000000,4.000000,4.000000,100.000000,45.000000,0.000000,0.498043,0.500000,0.468750,-0.531250,1.031266,0.000000,-0.093751,-76.563667,-38.281834,1.468763
1594579373.649852,91.000000,0.000000,4288.717773,4328.205078,4129.743652,4016.923096,4180.000000,1023.000000,4.000000,,,,0.000000,4.000000,4.000000,4.000000,4.000000,4.000000,100.000000,,,,,,,,,,,,
1594579373.657553,92.000000,0.000000,4264.102539,4297.436035,4101.538574,4001.538574,4160.512695,450.000000,4.000000,,,,0.000000,4.000000,4.000000,4.000000,4.000000,4.000000,100.000000,46.000000,0.000000,0.498043,0.500000,0.468750,-0.531250,1.062516,0.000000,-0.093751,-76.563667,-38.281834,1.321887
1594579373.665255,93.000000,0.000000,4280.000000,4317.948730,4122.563965,4004.102539,4181.025879,450.000000,4.000000,,,,0.000000,4.000000,4.000000,4.000000,4.000000,4.000000,100.000000,,,,,,,,,,,,
1594579373.672957,94.000000,0.000000,4293.333496,4326.153809,4132.820313,3995.897461,4186.666504,450.000000,4.000000,,,,0.000000,4.000000,4.000000,4.000000,4.000000,4.000000,100.000000,47.000000,0.000000,0.498043,0.500000,0.468750,-0.531250,1.031266,0.000000,-0.062501,-76.563667,-38.281834,1.189698
1594579373.680659,95.000000,0.000000,4250.769043,4276.922852,4081.025635,3942.564209,4139.487305,1023.000000,4.000000,,,,0.000000,4.000000,4.000000,4.000000,4.000000,4.000000,100.000000,,,,,,,,,,,,
1594579373.688361,96.000000,0.000000,4202.051270,4242.051270,4031.794922,3915.897461,4096.410156,450.000000,4.000000,,,,0.000000,4.000000,4.000000,4.000000,4.000000,4.000000,100.000000,48.000000,0.000000,0.498043,0.500000,0.468750,-0.531250,1.031266,0.000000,-0.062501,-76.563667,-38.281834,1.070729
1594579373.696263,97.000000,0.000000,4207.692383,4252.307617,4039.487061,3946.666748,4102.563965,450.000000,4.000000,,,,0.000000,4.000000,4.000000,4.000000,4.000000,4.000000,100.000000,,,,,,,,,,,,
1594579373.704165,98.000000,0.000000,4271.794922,4293.333496,4094.358887,3982.564209,4164.102539,450.000000,4.000000,,,,0.000000,4.000000,4.000000,4.000000,4.000000,4.000000,100.000000,49.000000,0.000000,0.498043,0.500000,0.468750,-0.531250,1.031266,0.000000,-0.093751,-76.563667,-38.281834,0.963656
1594579373.712066,99.000000,0.000000,4339.487305,4342.563965,4149.743652,3995.384521,4226.666504,1023.000000,4.000000,,,,0.000000,4.000000,4.000000,4.000000,4.000000,4.000000,100.000000,,,,,,,,,,,,
1594579373.719769,100.000000,0.000000,4363.077148,4383.589844,4175.384766,4014.871826,4241.025879,450.000000,4.000000,,,,0.000000,4.000000,4.000000,4.000000,4.000000,4.000000,100.000000,50.000000,0.000000,0.498043,0.500000,0.468750,-0.531250,1.031266,0.000000,-0.093751,-76.563667,-38.281834,0.867290
1594579373.727670,101.000000,0.000000,4383.589844,4424.615234,4199.487305,4076.923096,4262.051270,450.000000,4.000000,,,,0.000000,4.000000,4.000000,4.000000,4.000000,4.000000,100.000000,,,,,,,,,,,,
1594579373.735372,102.000000,0.000000,4392.307617,4438.974121,4203.589844,4098.974121,4278.461426,450.000000,4.000000,,,,0.000000,4.000000,4.000000,4.000000,4.000000,4.000000,100.000000,51.000000,0.000000,0.498043,0.500000,0.468750,-0.531250,1.031266,0.000000,-0.093751,-76.563667,-38.281834,0.780561
1594579373.743274,103.000000,0.000000,4361.025879,4414.358887,4171.794922,4060.512939,4246.153809,1023.000000,4.000000,,,,0.000000,4.000000,4.000000,4.000000,4.000000,4.000000,100.000000,,,,,,,,,,,,
1594579373.750976,104.000000,0.000000,4341.025879,4395.897461,4158.974121,4056.923096,4226.666504,450.000000,4.000000,,,,0.000000,4.000000,4.000000,4.000000,4.000000,4.000000,100.000000,52.000000,0.000000,0.498043,0.500000,0.468750,-0.531250,1.031266,0.000000,-0.093751,-76.563667,-38.281834,0.702505
1594579373.758878,105.000000,0.000000,4330.769043,4371.282227,4165.128418,4050.256348,4232.307617,450.000000,4.000000,,,,0.000000,4.000000,4.000000,4.000000,4.000000,4.000000,100.000000,,,,,,,,,,,,
1594579373.766580,106.000000,0.000000,4311.794922,4361.025879,4157.436035,4011.281982,4223.589844,450.000000,4.000000,,,,0.000000,4.000000,4.000000,4.000000,4.000000,4.000000,100.000000,53.000000,0.000000,0.498043,0.500000,0.468750,-0.531250,1.031266,0.000000,-0.093751,-76.563667,-38.281834,0.632255
1594579373.774482,107.000000,0.000000,4291.794922,4365.128418,4138.974121,4014.871826,4196.922852,1023.000000,4.000000,,,,0.000000,4.000000,4.000000,4.000000,4.000000,4.000000,100.000000,,,,,,,,,,,,
1594579373.782183,108.000000,0.000000,4290.769043,4363.077148,4135.897461,4043.076904,4190.256348,450.000000,4.000000,,,,0.000000,4.000000,4.000000,4.000000,4.000000,4.000000,100.000000,54.000000,0.000000,0.498043,0.500000,0.468750,-0.531250,1.031266,0.000000,-0.093751,-76.563667,-38.281834,0.569029
1594579373.789885,109.000000,0.000000,4312.820313,4377.436035,4152.307617,4034.871826,4212.820313,450.000000,4.000000,,,,0.000000,4.000000,4.000000,4.000000,4.000000,4.000000,100.000000,,,,,,,,,,,,
1594579373.797587,110.000000,0.000000,4297.948730,4358.974121,4135.897461,3997.948730,4202.563965,450.000000,4.000000,,,,0.000000,4.000000,4.000000,4.000000,4.000000,4.000000,100.000000,55.000000,0.000000,0.498043,0.500000,0.468750,-0.531250,1.031266,0.000000,-0.093751,-76.563667,-38.281834,0.512126
1594579373.805489,111.000000,0.000000,4273.333496,4317.948730,4117.436035,3996.410156,4187.179688,1023.000000,4.000000,,,,0.000000,4.000000,4.000000,4.000000,4.000000,4.000000,100.000000,,,,,,,,,,,,
1594579373.813191,112.000000,0.000000,4292.307617,4332.307617,4137.948730,4030.256348,4210.256348,450.000000,4.000000,,,,0.000000,4.000000,4.000000,4.000000,4.000000,4.000000,100.000000,56.000000,0.000000,0.498043,0.500000,0.468750,-0.531250,1.031266,0.000000,-0.093751,-76.563667,-38.281834,0.460914
1594579373.821092,113.000000,0.000000,4289.743652,4348.717773,4125.128418,4011.794922,4202.563965,450.000000,4.000000,,,,0.000000,4.000000,4.000000,4.000000,4.000000,4.000000,100.000000,,,,,,,,,,,,
1594579373.828794,114.000000,0.000000,4263.077148,4324.102539,4095.897461,3972.820557,4183.589844,450.000000,4.000000,,,,0.000000,4.000000,4.000000,4.000000,4.000000,4.000000,100.000000,57.000000,0.000000,0.498043,0.500000,0.468750,-0.531250,1.031266,0.000000,-0.062501,-76.563667,-38.281834,0.414822
1594579373.836696,115.000000,0.000000,4256.922852,4305.641113,4103.077148,4003.589844,4196.922852,1023.000000,4.000000,,,,0.000000,4.000000,4.000000,4.000000,4.000000,4.000000,100.000000,,,,,,,,,,,,
1594579373.844598,116.000000,0.000000,4264.615234,4322.051270,4120.000000,4036.923096,4206.153809,450.000000,4.000000,,,,0.000000,4.000000,4.000000,4.000000,4.000000,4.000000,100.000000,58.000000,0.000000,0.498043,0.500000,0.468750,-0.531250,1.031266,-0.031250,-0.062501,-76.563667,-38.281834,0.373340
1594579373.852499,117.000000,0.000000,4262.051270,4332.307617,4120.000000,4004.615479,4200.000000,450.000000,4.000000,,,,0.000000,4.000000,4.000000,4.000000,4.000000,4.000000,100.000000,,,,,,,,,,,,
1594579373.860201,118.000000,0.000000,4236.410156,4309.743652,4095.897461,3978.461426,4178.974121,450.000000,4.000000,,,,0.000000,4.000000,4.000000,4.000000,4.000000,4.000000,100.000000,59.000000,0.000000,0.498043,0.500000,0.468750,-0.531250,1.031266,-0.031250,-0.093751,-76.563667,-38.281834,0.336006
1594579373.867903,119.000000,0.000000,4238.974121,4303.589844,4095.384521,3987.179443,4170.769043,1023.000000,4.000000,,,,0.000000,4.000000,4.000000,4.000000,4.000000,4.000000,100.000000,,,,,,,,,,,,
1594579373.875605,120.000000,0.000000,4271.794922,4322.051270,4116.922852,3975.384521,4189.230957,450.000000,4.000000,,,,0.000000,4.000000,4.000000,4.000000,4.000000,4.000000,100.000000,60.000000,0.000000,0.498043,0.500000,0.468750,-0.531250,1.031266,-0.031250,-0.093751,-76.563667,-38.281834,0.302405
1594579373.883307,121.000000,0.000000,4274.358887,4313.846191,4114.871582,3977.435791,4195.384766,450.000000,4.000000,,,,0.000000,4.000000,4.000000,4.000000,4.000000,4.000000,100.000000,,,,,,,,,,,,
1594579373.891009,122.000000,0.000000,4247.179688,4281.025879,4095.384521,4020.512939,4181.538574,450.000000,4.000000,,,,0.000000,4.000000,4.000000,4.000000,4.000000,4.000000,100.000000,61.000000,0.000000,0.498043,0.500000,0.468750,-0.531250,1.031266,-0.031250,-0.062501,-76.563667,-38.281834,0.272165
1594579373.898711,123.000000,0.000000,4221.538574,4262.563965,4073.333252,3998.461426,4164.102539,1023.000000,4.000000,,,,0.000000,4.000000,4.000000,4.000000,4.000000,4.000000,100.000000,,,,,,,,,,,,
1594579373.906413,124.000000,0.000000,4224.615234,4272.820313,4070.256348,3945.128174,4163.077148,450.000000,4.000000,,,,0.000000,4.000000,4.000000,4.000000,4.000000,4.000000,100.000000,62.000000,0.000000,0.498043,0.500000,0.468750,-0.531250,1.031266,-0.031250,-0.093751,-76.563667,-38.281834,4.073132
1594579373.914314,125.000000,0.000000,4244.102539,4287.179688,4082.564209,3966.666748,4167.179688,450.000000,4.000000,,,,0.000000,4.000000,4.000000,4.000000,4.000000,4.000000,100.000000,,,,,,,,,,,,
1594579373.922016,126.000000,0.000000,4255.384766,4291.282227,4092.820557,3991.794922,4171.794922,450.000000,4.000000,,,,0.000000,4.000000,4.000000,4.000000,4.000000,4.000000,100.000000,63.000000,0.000000,0.498043,0.500000,0.468750,-0.531250,1.031266,-0.031250,-0.062501,-76.563667,-38.281834,3.665819
1594579373.929918,127.000000,0.000000,4260.000000,4297.436035,4097.948730,3978.974365,4186.666504,242.000000,4.000000,,,,0.000000,4.000000,4.000000,4.000000,4.000000,4.000000,100.000000,,,,,,,,,,,,
1594579373.937620,0.000000,0.000000,4249.230957,4289.230957,4085.128174,3952.820557,4180.000000,450.000000,4.000000,,,,0.000000,4.000000,4.000000,4.000000,4.000000,4.000000,100.000000,0.000000,0.000000,0.498043,0.500000,0.468750,-0.531250,1.031266,-0.031250,-0.093751,-76.563667,-38.281834,3.299237
1594579373.945522,1.000000,0.000000,4245.641113,4289.230957,4073.846191,3943.076904,4164.102539,450.000000,4.000000,,,,0.000000,4.000000,4.000000,4.000000,4.000000,4.000000,100.000000,,,,,,,,,,,,
1594579373.953224,2.000000,0.000000,4249.743652,4289.230957,4063.589844,3966.666748,4160.000000,1023.000000,4.000000,,,,0.000000,4.000000,4.000000,4.000000,4.000000,4.000000,100.000000,1.000000,0.000000,0.498043,0.500000,0.468750,-0.531250,1.031266,0.000000,-0.062501,-76.563667,-38.281834,6.797496
1594579373.960925,3.000000,0.000000,4237.948730,4264.615234,4055.897461,3978.461426,4158.974121,450.000000,4.000000,,,,0.000000,4.000000,4.000000,4.000000,4.000000,4.000000,100.000000,,,,,,,,,,,,
1594579373.968628,4.000000,0.000000,4261.025879,4283.077148,4093.846191,3998.461426,4195.384766,1023.000000,4.000000,,,,0.000000,4.000000,4.000000,4.000000,4.000000,4.000000,100.000000,2.000000,0.000000,0.498043,0.500000,0.468750,-0.531250,1.031266,0.000000,-0.093751,-76.563667,-38.281834,6.117747
1594579373.976529,5.000000,0.000000,4278.461426,4299.487305,4110.769043,4008.205078,4209.230957,450.000000,4.000000,,,,0.000000,4.000000,4.000000,4.000000,4.000000,4.000000,100.000000,,,,,,,,,,,,
1594579373.984231,6.000000,0.000000,4249.743652,4272.820313,4080.512939,3965.641113,4174.871582,1023.000000,4.000000,,,,0.000000,4.000000,4.000000,4.000000,4.000000,4.000000,100.000000,3.000000,0.000000,0.498043,0.500000,0.468750,-0.531250,1.031266,0.000000,-0.062501,-76.563667,-38.281834,5.505972
1594579373.992133,7.000000,0.000000,4258.974121,4293.333496,4091.281982,3965.641113,4184.102539,450.000000,4.000000,,,,0.000000,4.000000,4.000000,4.000000,4.000000,4.000000,100.000000,,,,,,,,,,,,
1594579373.999835,8.000000,0.000000,4277.948730,4313.846191,4109.743652,4005.128174,4198.974121,450.000000,4.000000,,,,0.000000,4.000000,4.000000,4.000000,4.000000,4.000000,100.000000,4.000000,0.000000,0.498043,0.500000,0.468750,-0.531250,1.031266,0.000000,-0.093751,-76.563667,-38.281834,4.955375
1594579374.007736,9.000000,0.000000,4257.948730,4293.333496,4096.922852,3987.692383,4178.974121,1023.000000,4.000000,,,,0.000000,4.000000,4.000000,4.000000,4.000000,4.000000,100.000000,,,,,,,,,,,,
1594579374.015439,10.000000,0.000000,4242.563965,4295.384766,4088.205078,3948.718018,4170.769043,450.000000,4.000000,,,,0.000000,4.000000,4.000000,4.000000,4.000000,4.000000,100.000000,5.000000,0.000000,0.498043,0.500000,0.468750,-0.531250,1.031266,0.000000,-0.093751,-76.563667,-38.281834,4.459837
1594579374.023340,11.000000,0.000000,4236.410156,4297.436035,4075.384521,3961.538574,4160.000000,1023.000000,4.000000,,,,0.000000,4.000000,4.000000,4.000000,4.000000,4.000000,100.000000,,,,,,,,,,,,
1594579374.031242,12.000000,0.000000,4221.538574,4278.974121,4057.948730,3974.871826,4133.846191,450.000000,4.000000,,,,0.000000,4.000000,4.000000,4.000000,4.000000,4.000000,100.000000,6.000000,0.000000,0.498043,0.500000,0.468750,-0.531250,1.031266,0.000000,-0.062501,-76.563667,-38.281834,4.013854
1594579374.039144,13.000000,0.000000,4212.307617,4266.666504,4051.794922,3938.974365,4120.512695,450.000000,4.000000,,,,0.000000,4.000000,4.000000,4.000000,4.000000,4.000000,100.000000,,,,,,,,,,,,
1594579374.047046,14.000000,0.000000,4215.384766,4270.769043,4054.358887,3928.205078,4125.641113,450.000000,4.000000,,,,0.000000,4.000000,4.000000,4.000000,4.000000,4.000000,100.000000,7.000000,0.000000,0.498043,0.500000,0.468750,-0.531250,1.031266,0.000000,-0.093751,-76.563667,-38.281834,3.612468
1594579374.054947,15.000000,0.000000,4201.538574,4254.358887,4044.102539,3941.025635,4116.922852,1023.000000,4.000000,,,,0.000000,4.000000,4.000000,4.000000,4.000000,4.000000,100.000000,,,,,,,,,,,,
1594579374.062649,16.000000,0.000000,4198.974121,4248.205078,4046.666748,3949.743652,4117.948730,0.000000,4.000000,,,,0.000000,4.000000,4.000000,4.000000,4.000000,4.000000,100.000000,8.000000,0.000000,0.498043,0.500000,0.468750,-0.531250,1.031266,0.000000,-0.062501,-76.563667,-38.281834,3.251221
1594579374.070551,17.000000,0.000000,4225.641113,4285.128418,4076.410156,3962.051270,4144.102539,0.000000,4.000000,,,,0.000000,4.000000,4.000000,4.000000,4.000000,4.000000,100.000000,,,,,,,,,,,,
1594579374.078453,18.000000,0.000000,4228.717773,4309.743652,4085.128174,3950.769287,4147.692383,0.000000,4.000000,,,,0.000000,4.000000,4.000000,4.000000,4.000000,4.000000,100.000000,9.000000,0.000000,0.498043,0.500000,0.468750,-0.531250,1.031266,0.000000,-0.093751,-76.563667,-38.281834,2.926099
1594579374.086155,19.000000,0.000000,4229.743652,4307.692383,4079.487061,3960.000000,4141.538574,0.000000,4.000000,,,,0.000000,4.000000,4.000000,4.000000,4.000000,4.000000,100.000000,,,,,,,,,,,,
1594579374.093857,20.000000,0.000000,4234.358887,4291.282227,4074.358887,3995.384521,4131.794922,0.000000,4.000000,,,,0.000000,4.000000,4.000000,4.000000,4.000000,4.000000,100.000000,10.000000,0.000000,0.498043,0.500000,0.468750,-0.531250,1.031266,0.000000,-0.062501,-76.563667,-38.281834,2.633489
1594579374.101758,21.000000,0.000000,4221.538574,4272.820313,4069.743652,3993.846191,4119.487305,0.000000,4.000000,,,,0.000000,4.000000,4.000000,4.000000,4.000000,4.000000,100.000000,,,,,,,,,,,,
1594579374.109460,22.000000,0.000000,4233.333496,4283.077148,4088.205078,3984.102539,4142.563965,0.000000,4.000000,,,,0.000000,4.000000,4.000000,4.000000,4.000000,4.000000,100.000000,11.000000,0.000000,0.498043,0.500000,0.468750,-0.531250,1.031266,0.000000,-0.093751,-76.563667,-38.281834,2.370141
1594579374.117362,23.000000,0.000000,4254.871582,4307.692383,4110.256348,3990.256348,4166.666504,0.000000,4.000000,,,,0.000000,4.000000,4.000000,4.000000,4.000000,4.000000,100.000000,,,,,,,,,,,,
1594579374.125264,24.000000,0.000000,4256.922852,4301.538574,4106.666504,3980.512939,4157.948730,0.000000,4.000000,,,,0.000000,4.000000,4.000000,4.000000,4.000000,4.000000,100.000000,12.000000,0.000000,0.498043,0.500000,0.468750,-0.531250,1.031266,0.000000,-0.093751,-76.563667,-38.281834,2.133126
1594579374.133166,25.000000,0.000000,4246.153809,4264.615234,4082.051270,3955.384521,4138.461426,0.000000,4.000000,,,,0.000000,4.000000,4.000000,4.000000,4.000000,4.000000,100.000000,,,,,,,,,,,,
1594579374.140868,26.000000,0.000000,4221.538574,4244.102539,4056.410156,3957.435791,4120.000000,0.000000,4.000000,,,,0.000000,4.000000,4.000000,4.000000,4.000000,4.000000,100.000000,13.000000,0.000000,0.498043,0.500000,0.468750,-0.531250,1.031266,0.000000,-0.093751,-76.563667,-38.281834,1.919814
1594579374.148770,27.000000,0.000000,4205.128418,4252.307617,4045.641113,3969.743652,4115.897461,0.000000,4.000000,,,,0.000000,4.000000,4.000000,4.000000,4.000000,4.000000,100.000000,,,,,,,,,,,,
1594579374.156671,28.000000,0.000000,4214.358887,4262.563965,4050.256348,3961.538574,4132.307617,0.000000,4.000000,,,,0.000000,4.000000,4.000000,4.000000,4.000000,4.000000,100.000000,14.000000,0.000000,0.498043,0.500000,0.468750,-0.531250,1.031266,0.000000,-0.093751,-76.563667,-38.281834,1.727832
1594579374.164373,29.000000,0.000000,4226.153809,4258.461426,4064.615479,3970.769287,4149.743652,0.000000,4.000000,,,,0.000000,4.000000,4.000000,4.000000,4.000000,4.000000,100.000000,,,,,,,,,,,,
1594579374.172075,30.000000,0.000000,4213.846191,4258.461426,4061.025635,3986.153809,4139.487305,0.000000,4.000000,,,,0.000000,4.000000,4.000000,4.000000,4.000000,4.000000,100.000000,15.000000,0.000000,0.498043,0.500000,0.468750,-0.531250,1.031266,0.000000,-0.093751,-76.563667,-38.281834,1.555049
1594579374.179977,31.000000,0.000000,4196.410156,4268.717773,4036.410156,3956.923096,4114.871582,0.000000,4.000000,,,,0.000000,4.000000,4.000000,4.000000,4.000000,4.000000,100.000000,,,,,,,,,,,,
1594579374.187679,32.000000,0.000000,4208.717773,4274.871582,4038.974365,3932.820557,4120.000000,0.000000,4.000000,,,,0.000000,4.000000,4.000000,4.000000,4.000000,4.000000,100.000000,16.000000,0.000000,0.498043,0.500000,0.468750,-0.531250,1.031266,0.000000,-0.093751,-76.563667,-38.281834,1.399544
1594579374.195581,33.000000,0.000000,4220.000000,4254.358887,4052.820557,3935.897461,4129.743652,0.000000,4.000000,,,,0.000000,4.000000,4.000000,4.000000,4.000000,4.000000,100.000000,,,,,,,,,,,,
1594579374.203282,34.000000,0.000000,4218.461426,4233.846191,4047.179443,3929.230713,4130.769043,0.000000,4.000000,,,,0.000000,4.000000,4.000000,4.000000,4.000000,4.000000,100.000000,17.000000,0.000000,0.498043,0.500000,0.468750,-0.531250,1.031266,0.000000,-0.093751,-76.563667,-38.281834,1.259590
1594579374.211184,35.000000,0.000000,4208.205078,4237.948730,4036.923096,3943.589844,4134.358887,0.000000,4.000000,,,,0.000000,4.000000,4.000000,4.000000,4.000000,4.000000,100.000000,,,,,,,,,,,,
1594579374.218886,36.000000,0.000000,4151.282227,4207.179688,4002.051270,3934.358887,4095.897461,0.000000,4.000000,,,,0.000000,4.000000,4.000000,4.000000,4.000000,4.000000,100.000000,18.000000,0.000000,0.498043,0.500000,0.468750,-0.531250,1.031266,0.000000,-0.093751,-76.563667,-38.281834,1.133631
1594579374.226788,37.000000,0.000000,4095.384521,4145.641113,3954.358887,3866.153809,4035.897461,0.000000,4.000000,,,,0.000000,4.000000,4.000000,4.000000,4.000000,4.000000,100.000000,,,,,,,,,,,,
1594579374.234490,38.000000,0.000000,4076.410156,4096.410156,3914.871826,3822.051270,4002.564209,0.000000,4.000000,,,,0.000000,4.000000,4.000000,4.000000,4.000000,4.000000,100.000000,19.000000,0.000000,0.498043,0.500000,0.468750,-0.531250,1.031266,0.000000,-0.093751,-76.563667,-38.281834,1.020268
1594579374.242391,39.000000,0.000000,4025.128174,4073.846191,3861.025635,3799.487061,3958.461426,0.000000,4.000000,,,,0.000000,4.000000,4.000000,4.000000,4.000000,4.000000,100.000000,,,,,,,,,,,,
1594579374.250293,40.000000,0.000000,3948.718018,4053.333252,3808.718018,3731.281982,3891.281982,0.000000,4.000000,,,,0.000000,4.000000,4.000000,4.000000,4.000000,4.000000,100.000000,20.000000,0.000000,0.498043,0.500000,0.468750,-0.531250,1.031266,0.000000,-0.093751,-76.563667,-38.281834,0.918241
1594579374.257995,41.000000,0.000000,3924.615479,4004.102539,3792.307617,3667.179443,3854.871826,0.000000,4.000000,,,,0.000000,4.000000,4.000000,4.000000,4.000000,4.000000,100.000000,,,,,,,,,,,,
1594579374.265697,42.000000,0.000000,3955.897461,3997.948730,3820.000000,3693.846191,3883.076904,0.000000,4.000000,,,,0.000000,4.000000,4.000000,4.000000,4.000000,4.000000,100.000000,21.000000,0.000000,0.498043,0.500000,0.468750,-0.531250,1.031266,0.000000,-0.062501,-76.563667,-38.281834,0.826417
1594579374.273399,43.000000,0.000000,3964.102539,4030.769287,3836.410156,3732.820557,3904.102539,0.000000,4.000000,,,,0.000000,4.000000,4.000000,4.000000,4.000000,4.000000,100.000000,,,,,,,,,,,,
1594579374.281101,44.000000,0.000000,3939.487061,4012.307617,3809.743652,3709.743652,3875.384521,0.000000,4.000000,,,,0.000000,4.000000,4.000000,4.000000,4.000000,4.000000,100.000000,22.000000,0.000000,0.498043,0.500000,0.468750,-0.531250,1.062516,0.000000,-0.093751,-76.563667,-38.281834,0.743775
1594579374.289002,45.000000,0.000000,3951.281982,3993.846191,3806.666748,3708.205078,3870.256348,0.000000,4.000000,,,,0.000000,4.000000,4.000000,4.000000,4.000000,4.000000,100.000000,,,,,,,,,,,,
1594579374.296704,46.000000,0.000000,3976.410156,4026.666748,3829.743652,3730.256348,3890.256348,0.000000,4.000000,,,,0.000000,4.000000,4.000000,4.000000,4.000000,4.000000,100.000000,23.000000,0.000000,0.498043,0.500000,0.468750,-0.531250,1.000015,-0.031250,-0.062501,-76.563667,-38.281834,0.669398
1594579374.304406,47.000000,0.000000,3956.923096,4032.820557,3823.589844,3712.307617,3880.512939,0.000000,4.000000,,,,0.000000,4.000000,4.000000,4.000000,4.000000,4.000000,100.000000,,,,,,,,,,,,
1594579374.312108,48.000000,0.000000,3939.487061,4020.512939,3815.384521,3704.102539,3872.820557,0.000000,4.000000,,,,0.000000,4.000000,4.000000,4.000000,4.000000,4.000000,100.000000,24.000000,0.000000,0.498043,0.500000,0.468750,-0.531250,1.031266,0.000000,-0.062501,-76.563667,-38.281834,0.602458
1594579374.319809,49.000000,0.000000,3980.000000,4057.435791,3849.230713,3737.948730,3905.641113,0.000000,4.000000,,,,0.000000,4.000000,4.000000,4.000000,4.000000,4.000000,100.000000,,,,,,,,,,,,
1594579374.327512,50.000000,0.000000,4089.743652,4151.794922,3948.205078,3813.333252,4011.794922,0.000000,4.000000,,,,0.000000,4.000000,4.000000,4.000000,4.000000,4.000000,100.000000,25.000000,0.000000,0.498043,0.500000,0.468750,-0.531250,1.031266,-0.031250,-0.093751,-76.563667,-38.281834,0.542212
1594579374.335413,51.000000,0.000000,4206.153809,4276.922852,4067.692383,3932.820557,4140.512695,0.000000,4.000000,,,,0.000000,4.000000,4.000000,4.000000,4.000000,4.000000,100.000000,,,,,,,,,,,,
1594579374.343115,52.000000,0.000000,4277.948730,4369.230957,4137.948730,4027.692383,4213.846191,0.000000,4.000000,,,,0.000000,4.000000,4.000000,4.000000,4.000000,4.000000,100.000000,26.000000,0.000000,0.498043,0.500000,0.468750,-0.531250,1.031266,-0.031250,-0.093751,-76.563667,-38.281834,0.487991
1594579374.351017,53.000000,0.000000,4340.512695,4410.256348,4182.051270,4069.230713,4262.563965,0.000000,4.000000,,,,0.000000,4.000000,4.000000,4.000000,4.000000,4.000000,100.000000,,,,,,,,,,,,
1594579374.358719,54.000000,0.000000,4390.256348,4430.769043,4230.769043,4103.589844,4308.717773,0.000000,4.000000,,,,0.000000,4.000000,4.000000,4.000000,4.000000,4.000000,100.000000,27.000000,0.000000,0.498043,0.500000,0.468750,-0.531250,1.031266,0.000000,-0.062501,-76.563667,-38.281834,0.439192
1594579374.366421,55.000000,0.000000,4420.000000,4461.538574,4277.948730,4157.436035,4343.077148,0.000000,4.000000,,,,0.000000,4.000000,4.000000,4.000000,4.000000,4.000000,100.000000,,,,,,,,,,,,
1594579374.374122,56.000000,0.000000,4418.461426,4486.153809,4285.641113,4168.717773,4345.128418,0.000000,4.000000,,,,0.000000,4.000000,4.000000,4.000000,4.000000,4.000000,100.000000,28.000000,0.000000,0.498043,0.500000,0.468750,-0.531250,1.031266,0.000000,-0.093751,-76.563667,-38.281834,0.395273
1594579374.381824,57.000000,0.000000,4394.871582,4477.948730,4259.487305,4135.384766,4326.153809,0.000000,4.000000,,,,0.000000,4.000000,4.000000,4.000000,4.000000,4.000000,100.000000,,,,,,,,,,,,
1594579374.389526,58.000000,0.000000,4410.256348,4471.794922,4266.666504,4133.333496,4333.846191,0.000000,4.000000,,,,0.000000,4.000000,4.000000,4.000000,4.000000,4.000000,100.000000,29.000000,0.000000,0.498043,0.500000,0.468750,-0.531250,1.031266,0.000000,-0.093751,-76.563667,-38.281834,0.355745
1594579374.397228,59.000000,0.000000,4411.794922,4457.436035,4269.743652,4130.256348,4327.179688,0.000000,4.000000,,,,0.000000,4.000000,4.000000,4.000000,4.000000,4.000000,100.000000,,,,,,,,,,,,
1594579374.404929,60.000000,0.000000,4375.384766,4436.922852,4243.077148,4122.051270,4303.589844,0.000000,4.000000,,,,0.000000,4.000000,4.000000,4.000000,4.000000,4.000000,100.000000,30.000000,0.000000,0.498043,0.500000,0.468750,-0.531250,1.031266,0.000000,-0.062501,-76.563667,-38.281834,0.320171
1594579374.412831,61.000000,0.000000,4361.538574,4430.769043,4222.051270,4129.230957,4293.333496,0.000000,4.000000,,,,0.000000,4.000000,4.000000,4.000000,4.000000,4.000000,100.000000,,,,,,,,,,,,
1594579374.420533,62.000000,0.000000,4358.461426,4408.205078,4209.743652,4111.794922,4272.820313,0.000000,4.000000,,,,0.000000,4.000000,4.000000,4.000000,4.000000,4.000000,100.000000,31.000000,0.000000,0.498043,0.500000,0.468750,-0.531250,1.031266,0.000000,-0.093751,-76.563667,-38.281834,0.288154
1594579374.428435,63.000000,0.000000,4365.641113,4406.153809,4223.077148,4108.717773,4282.563965,0.000000,4.000000,,,,0.000000,4.000000,4.000000,4.000000,4.000000,4.000000,100.000000,,,,,,,,,,,,
1594579374.436137,64.000000,0.000000,4379.487305,4432.820313,4231.794922,4136.922852,4307.692383,450.000000,4.000000,,,,0.000000,4.000000,4.000000,4.000000,4.000000,4.000000,100.000000,32.000000,0.000000,0.498043,0.500000,0.468750,-0.531250,1.031266,0.000000,-0.093751,-76.563667,-38.281834,0.259338
1594579374.444038,65.000000,0.000000,4373.846191,4428.717773,4208.205078,4126.153809,4286.153809,450.000000,4.000000,,,,0.000000,4.000000,4.000000,4.000000,4.000000,4.000000,100.000000,,,,,,,,,,,,
1594579374.451940,66.000000,0.000000,4372.820313,4418.461426,4207.692383,4107.692383,4280.512695,1023.000000,4.000000,,,,0.000000,4.000000,4.000000,4.000000,4.000000,4.000000,100.000000,33.000000,0.000000,0.498043,0.500000,0.468750,-0.531250,1.031266,0.000000,-0.093751,-76.563667,-38.281834,0.233405
1594579374.459842,67.000000,0.000000,4387.179688,4432.820313,4232.820313,4138.461426,4313.333496,450.000000,4.000000,,,,0.000000,4.000000,4.000000,4.000000,4.000000,4.000000,100.000000,,,,,,,,,,,,
1594579374.467543,68.000000,0.000000,4380.000000,4428.717773,4222.563965,4144.102539,4302.563965,1023.000000,4.000000,,,,0.000000,4.000000,4.000000,4.000000,4.000000,4.000000,100.000000,34.000000,0.000000,0.498043,0.500000,0.468750,-0.531250,1.000015,-0.031250,-0.093751,-76.563667,-38.281834,0.210064
1594579374.475245,69.000000,0.000000,4335.897461,4383.589844,4178.461426,4088.205078,4250.256348,450.000000,4.000000,,,,0.000000,4.000000,4.000000,4.000000,4.000000,4.000000,100.000000,,,,,,,,,,,,
1594579374.482947,70.000000,0.000000,4316.410156,4369.230957,4177.436035,4090.256348,4242.563965,1023.000000,4.000000,,,,0.000000,4.000000,4.000000,4.000000,4.000000,4.000000,100.000000,35.000000,0.000000,0.498043,0.500000,0.468750,-0.531250,1.031266,0.000000,-0.093751,-76.563667,-38.281834,0.189058
1594579374.490649,71.000000,0.000000,4330.769043,4385.641113,4201.025879,4120.000000,4262.051270,450.000000,4.000000,,,,0.000000,4.000000,4.000000,4.000000,4.000000,4.000000,100.000000,,,,,,,,,,,,
1594579374.498351,72.000000,0.000000,4319.487305,4373.333496,4180.512695,4064.615479,4248.717773,450.000000,4.000000,,,,0.000000,4.000000,4.000000,4.000000,4.000000,4.000000,100.000000,36.000000,0.000000,0.498043,0.500000,0.468750,-0.531250,1.031266,0.000000,-0.062501,-76.563667,-38.281834,0.170152
1594579374.506253,73.000000,0.000000,4313.333496,4387.692383,4171.794922,4065.128174,4242.051270,1023.000000,4.000000,,,,0.000000,4.000000,4.000000,4.000000,4.000000,4.000000,100.000000,,,,,,,,,,,,
1594579374.513955,74.000000,0.000000,4328.717773,4408.205078,4194.358887,4132.820313,4254.358887,450.000000,4.000000,,,,0.000000,4.000000,4.000000,4.000000,4.000000,4.000000,100.000000,37.000000,0.000000,0.498043,0.500000,0.468750,-0.531250,1.031266,-0.031250,-0.062501,-76.563667,-38.281834,0.153137
1594579374.521856,75.000000,0.000000,4322.563965,4379.487305,4189.230957,4094.358887,4250.769043,1023.000000,4.000000,,,,0.000000,4.000000,4.000000,4.000000,4.000000,4.000000,100.000000,,,,,,,,,,,,
1594579374.529558,76.000000,0.000000,4311.794922,4371.282227,4169.743652,4040.512939,4245.128418,450.000000,4.000000,,,,0.000000,4.000000,4.000000,4.000000,4.000000,4.000000,100.000000,38.000000,0.000000,0.498043,0.500000,0.468750,-0.531250,1.031266,0.000000,-0.062501,-76.563667,-38.281834,0.137823
1594579374.537460,77.000000,0.000000,4304.615234,4377.436035,4163.077148,4078.461426,4235.384766,450.000000,4.000000,,,,0.000000,4.000000,4.000000,4.000000,4.000000,4.000000,100.000000,,,,,,,,,,,,
1594579374.545162,78.000000,0.000000,4305.128418,4369.230957,4172.820313,4105.641113,4233.846191,450.000000,4.000000,,,,0.000000,4.000000,4.000000,4.000000,4.000000,4.000000,100.000000,39.000000,0.000000,0.498043,0.500000,0.468750,-0.531250,1.031266,-0.031250,-0.062501,-76.563667,-38.281834,0.124041
1594579374.553064,79.000000,0.000000,4332.307617,4373.333496,4188.205078,4086.666748,4253.846191,1023.000000,4.000000,,,,0.000000,4.000000,4.000000,4.000000,4.000000,4.000000,100.000000,,,,,,,,,,,,
1594579374.560966,80.000000,0.000000,4338.461426,4369.230957,4175.384766,4071.794922,4249.743652,450.000000,4.000000,,,,0.000000,4.000000,4.000000,4.000000,4.000000,4.000000,100.000000,40.000000,0.000000,0.498043,0.500000,0.468750,-0.531250,1.031266,0.000000,-0.062501,-76.563667,-38.281834,0.111637
1594579374.568868,81.000000,0.000000,4316.922852,4361.025879,4155.897461,4055.897461,4229.743652,450.000000,4.000000,,,,0.000000,4.000000,4.000000,4.000000,4.000000,4.000000,100.000000,,,,,,,,,,,,
1594579374.576570,82.000000,0.000000,4314.871582,4377.436035,4162.563965,4035.897461,4236.922852,450.000000,4.000000,,,,0.000000,4.000000,4.000000,4.000000,4.000000,4.000000,100.000000,41.000000,0.000000,0.498043,0.500000,0.468750,-0.531250,1.031266,0.000000,-0.093751,-76.563667,-38.281834,0.100473
1594579374.584471,83.000000,0.000000,4333.333496,4389.743652,4181.025879,4075.897461,4257.436035,1023.000000,4.000000,,,,0.000000,4.000000,4.000000,4.000000,4.000000,4.000000,100.000000,,,,,,,,,,,,
1594579374.592173,84.000000,0.000000,4337.948730,4379.487305,4184.615234,4139.487305,4257.436035,450.000000,4.000000,,,,0.000000,4.000000,4.000000,4.000000,4.000000,4.000000,100.000000,42.000000,0.000000,0.498043,0.500000,0.468750,-0.531250,1.031266,0.000000,-0.093751,-76.563667,-38.281834,0.090426
1594579374.600075,85.000000,0.000000,4314.358887,4365.128418,4163.077148,4106.666504,4237.436035,450.000000,4.000000,,,,0.000000,4.000000,4.000000,4.000000,4.000000,4.000000,100.000000,,,,,,,,,,,,
1594579374.607777,86.000000,0.000000,4298.974121,4367.179688,4149.230957,4051.281982,4233.846191,450.000000,4.000000,,,,0.000000,4.000000,4.000000,4.000000,4.000000,4.000000,100.000000,43.000000,0.000000,0.498043,0.500000,0.468750,-0.531250,1.031266,0.000000,-0.062501,-76.563667,-38.281834,0.081383
1594579374.615678,87.000000,0.000000,4283.077148,4350.769043,4135.897461,4049.230713,4216.410156,1023.000000,4.000000,,,,0.000000,4.000000,4.000000,4.000000,4.000000,4.000000,100.000000,,,,,,,,,,,,
1594579374.623380,88.000000,0.000000,4254.358887,4303.589844,4111.794922,4019.487061,4182.051270,450.000000,4.000000,,,,0.000000,4.000000,4.000000,4.000000,4.000000,4.000000,100.000000,44.000000,0.000000,0.498043,0.500000,0.468750,-0.531250,1.031266,0.000000,-0.062501,-76.563667,-38.281834,0.073245
1594579374.631282,89.000000,0.000000,4247.692383,4301.538574,4109.230957,3986.153809,4188.205078,450.000000,4.000000,,,,0.000000,4.000000,4.000000,4.000000,4.000000,4.000000,100.000000,,,,,,,,,,,,
1594579374.638984,90.000000,0.000000,4265.128418,4334.358887,4129.230957,4021.025635,4204.615234,450.000000,4.000000,,,,0.000000,4.000000,4.000000,4.000000,4.000000,4.000000,100.000000,45.000000,0.000000,0.498043,0.500000,0.468750,-0.531250,1.031266,0.000000,-0.062501,-76.563667,-38.281834,0.065920
1594579374.646886,91.000000,0.000000,4295.384766,4358.974121,4155.384766,4065.128174,4213.846191,1023.000000,4.000000,,,,0.000000,4.000000,4.000000,4.000000,4.000000,4.000000,100.000000,,,,,,,,,,,,
1594579374.654787,92.000000,0.000000,4306.666504,4371.282227,4160.000000,4072.307617,4224.102539,450.000000,4.000000,,,,0.000000,4.000000,4.000000,4.000000,4.000000,4.000000,100.000000,46.000000,0.000000,0.498043,0.500000,0.468750,-0.531250,1.031266,0.000000,-0.093751,-76.563667,-38.281834,0.059328
1594579374.662689,93.000000,0.000000,4284.102539,4377.436035,4146.153809,4074.358887,4216.410156,450.000000,4.000000,,,,0.000000,4.000000,4.000000,4.000000,4.000000,4.000000,100.000000,,,,,,,,,,,,
1594579374.670391,94.000000,0.000000,4279.487305,4375.384766,4143.077148,4061.025635,4206.666504,450.000000,4.000000,,,,0.000000,4.000000,4.000000,4.000000,4.000000,4.000000,100.000000,47.000000,0.000000,0.498043,0.500000,0.468750,-0.531250,1.031266,0.000000,-0.093751,-76.563667,-38.281834,0.053395
1594579374.678093,95.000000,0.000000,4285.641113,4354.871582,4124.615234,4025.128174,4195.384766,1023.000000,4.000000,,,,0.000000,4.000000,4.000000,4.000000,4.000000,4.000000,100.000000,,,,,,,,,,,,
1594579374.685794,96.000000,0.000000,4289.743652,4346.666504,4120.000000,4036.923096,4193.333496,450.000000,4.000000,,,,0.000000,4.000000,4.000000,4.000000,4.000000,4.000000,100.000000,48.000000,0.000000,0.498043,0.500000,0.468750,-0.531250,1.031266,0.000000,-0.093751,-76.563667,-38.281834,3.876239
1594579374.693496,97.000000,0.000000,4294.358887,4354.871582,4147.692383,4065.641113,4208.205078,450.000000,4.000000,,,,0.000000,4.000000,4.000000,4.000000,4.000000,4.000000,100.000000,,,,,,,,,,,,
1594579374.701198,98.000000,0.000000,4273.846191,4330.256348,4135.897461,4025.641113,4191.794922,450.000000,4.000000,,,,0.000000,4.000000,4.000000,4.000000,4.000000,4.000000,100.000000,49.000000,0.000000,0.498043,0.500000,0.468750,-0.531250,1.031266,0.000000,-0.093751,-76.563667,-38.281834,3.488616
1594579374.709100,99.000000,0.000000,4253.846191,4311.794922,4106.153809,4008.205078,4165.128418,1023.000000,4.000000,,,,0.000000,4.000000,4.000000,4.000000,4.000000,4.000000,100.000000,,,,,,,,,,,,
1594579374.716802,100.000000,0.000000,4263.589844,4338.461426,4116.922852,4064.102539,4173.333496,450.000000,4.000000,,,,0.000000,4.000000,4.000000,4.000000,4.000000,4.000000,100.000000,50.000000,0.000000,0.498043,0.500000,0.468750,-0.531250,1.031266,0.000000,-0.093751,-76.563667,-38.281834,3.139754
1594579374.724704,101.000000,0.000000,4280.512695,4363.077148,4133.846191,4088.205078,4196.410156,450.000000,4.000000,,,,0.000000,4.000000,4.000000,4.000000,4.000000,4.000000,100.000000,,,,,,,,,,,,
1594579374.732406,102.000000,0.000000,4263.077148,4350.769043,4113.333496,4046.666748,4188.717773,450.000000,4.000000,,,,0.000000,4.000000,4.000000,4.000000,4.000000,4.000000,100.000000,51.000000,0.000000,0.498043,0.500000,0.468750,-0.531250,1.031266,0.000000,-0.093751,-76.563667,-38.281834,2.825778
1594579374.740307,103.000000,0.000000,4236.410156,4330.256348,4090.256348,4015.897461,4157.436035,1023.000000,4.000000,,,,0.000000,4.000000,4.000000,4.000000,4.000000,4.000000,100.000000,,,,,,,,,,,,
1594579374.748009,104.000000,0.000000,4255.897461,4330.256348,4107.179688,4032.307617,4160.512695,450.000000,4.000000,,,,0.000000,4.000000,4.000000,4.000000,4.000000,4.000000,100.000000,52.000000,0.000000,0.498043,0.500000,0.468750,-0.531250,1.031266,0.000000,-0.093751,-76.563667,-38.281834,6.371384
1594579374.755911,105.000000,0.000000,4259.487305,4317.948730,4108.205078,4029.743652,4167.179688,450.000000,4.000000,,,,0.000000,4.000000,4.000000,4.000000,4.000000,4.000000,100.000000,,,,,,,,,,,,
1594579374.763613,106.000000,0.000000,4240.512695,4305.641113,4101.538574,4012.307617,4163.077148,450.000000,4.000000,,,,0.000000,4.000000,4.000000,4.000000,4.000000,4.000000,100.000000,53.000000,0.000000,0.498043,0.500000,0.468750,-0.531250,1.031266,0.000000,-0.093751,-76.563667,-38.281834,5.734246
1594579374.771315,107.000000,0.000000,4258.461426,4330.256348,4127.179688,4034.871826,4181.025879,1023.000000,4.000000,,,,0.000000,4.000000,4.000000,4.000000,4.000000,4.000000,100.000000,,,,,,,,,,,,
1594579374.779017,108.000000,0.000000,4260.000000,4324.102539,4126.153809,4056.410156,4174.358887,450.000000,4.000000,,,,0.000000,4.000000,4.000000,4.000000,4.000000,4.000000,100.000000,54.000000,0.000000,0.498043,0.500000,0.468750,-0.531250,1.031266,0.000000,-0.062501,-76.563667,-38.281834,5.160821
1594579374.786918,109.000000,0.000000,4239.487305,4305.641113,4098.461426,4043.076904,4153.846191,450.000000,4.000000,,,,0.000000,4.000000,4.000000,4.000000,4.000000,4.000000,100.000000,,,,,,,,,,,,
1594579374.794620,110.000000,0.000000,4239.487305,4324.102539,4096.410156,4020.512939,4158.974121,450.000000,4.000000,,,,0.000000,4.000000,4.000000,4.000000,4.000000,4.000000,100.000000,55.000000,0.000000,0.498043,0.500000,0.468750,-0.531250,1.031266,0.000000,-0.093751,-76.563667,-38.281834,4.644739
1594579374.802522,111.000000,0.000000,4243.077148,4328.205078,4110.769043,4028.205078,4165.128418,1023.000000,4.000000,,,,0.000000,4.000000,4.000000,4.000000,4.000000,4.000000,100.000000,,,,,,,,,,,,
1594579374.810224,112.000000,0.000000,4248.205078,4313.846191,4116.410156,4050.769287,4169.743652,450.000000,4.000000,,,,0.000000,4.000000,4.000000,4.000000,4.000000,4.000000,100.000000,56.000000,0.000000,0.498043,0.500000,0.468750,-0.531250,1.031266,0.000000,-0.093751,-76.563667,-38.281834,4.180265
1594579374.818126,113.000000,0.000000,4249.230957,4311.794922,4108.717773,4038.461426,4174.358887,450.000000,4.000000,,,,0.000000,4.000000,4.000000,4.000000,4.000000,4.000000,100.000000,,,,,,,,,,,,
1594579374.826027,114.000000,0.000000,4259.487305,4313.846191,4114.871582,4041.538574,4183.589844,450.000000,4.000000,,,,0.000000,4.000000,4.000000,4.000000,4.000000,4.000000,100.000000,57.000000,0.000000,0.498043,0.500000,0.468750,-0.531250,1.031266,0.000000,-0.093751,-76.563667,-38.281834,3.762239
1594579374.833929,115.000000,0.000000,4285.128418,4313.846191,4136.410156,4068.718018,4206.666504,1023.000000,4.000000,,,,0.000000,4.000000,4.000000,4.000000,4.000000,4.000000,100.000000,,,,,,,,,,,,
1594579374.841631,116.000000,0.000000,4287.179688,4330.256348,4138.974121,4053.333252,4217.436035,450.000000,4.000000,,,,0.000000,4.000000,4.000000,4.000000,4.000000,4.000000,100.000000,58.000000,0.000000,0.498043,0.500000,0.468750,-0.531250,1.031266,0.000000,-0.062501,-76.563667,-38.281834,3.386015
1594579374.849533,117.000000,0.000000,4268.717773,4358.974121,4126.153809,4044.615479,4202.051270,450.000000,4.000000,,,,0.000000,4.000000,4.000000,4.000000,4.000000,4.000000,100.000000,,,,,,,,,,,,
1594579374.857435,118.000000,0.000000,4255.897461,4346.666504,4109.743652,4065.128174,4183.589844,450.000000,4.000000,,,,0.000000,4.000000,4.000000,4.000000,4.000000,4.000000,100.000000,59.000000,0.000000,0.498043,0.500000,0.468750,-0.531250,1.031266,0.000000,-0.093751,-76.563667,-38.281834,3.047413
